##TITLE=No Description
##DATA TYPE=INFRARED SPECTRUM
##XUNITS=1/CM
##YUNITS=%T
399.452061  	30.456208 
400.888939  	28.312710 
402.325817  	30.233020 
403.762695  	30.631600 
405.199573  	29.686832 
406.636451  	30.334841 
408.073328  	29.045037 
409.510206  	29.277858 
410.947084  	29.587825 
412.383962  	28.419226 
413.820840  	30.063152 
415.257718  	29.919178 
416.694596  	28.321723 
418.131474  	29.573338 
419.568352  	29.305088 
421.005230  	29.223142 
422.442108  	30.110649 
423.878986  	29.670323 
425.315863  	30.351758 
426.752741  	30.067783 
428.189619  	28.996959 
429.626497  	29.572049 
431.063375  	29.467517 
432.500253  	29.719150 
433.937131  	29.973956 
435.374009  	29.203302 
436.810887  	30.462185 
438.247765  	31.078802 
439.684643  	30.057942 
441.121521  	30.419922 
442.558398  	30.323545 
443.995276  	29.923416 
445.432154  	30.221747 
446.869032  	30.012435 
448.305910  	30.533301 
449.742788  	30.625558 
451.179666  	30.053970 
452.616544  	30.191090 
454.053422  	29.645224 
455.490300  	29.483694 
456.927178  	30.156467 
458.364056  	29.936227 
459.800933  	30.498543 
461.237811  	30.893636 
462.674689  	30.480028 
464.111567  	30.552661 
465.548445  	30.375150 
466.985323  	30.637640 
468.422201  	31.093413 
469.859079  	30.515905 
471.295957  	30.408893 
472.732835  	30.391600 
474.169713  	30.150794 
475.606591  	30.617176 
477.043469  	30.326427 
478.480346  	30.059445 
479.917224  	30.554126 
481.354102  	30.363640 
482.790980  	30.329238 
484.227858  	30.420134 
485.664736  	30.237585 
487.101614  	30.748673 
488.538492  	30.890193 
489.975370  	30.629893 
491.412248  	30.750074 
492.849126  	30.617776 
494.286004  	30.718895 
495.722881  	30.902290 
497.159759  	30.720733 
498.596637  	30.852703 
500.033515  	30.846365 
501.470393  	30.774133 
502.907271  	31.122921 
504.344149  	31.145956 
505.781027  	31.177871 
507.217905  	31.290290 
508.654783  	31.208414 
510.091661  	31.425228 
511.528539  	31.474200 
512.965416  	31.397794 
514.402294  	31.595692 
515.839172  	31.504839 
517.276050  	31.504920 
518.712928  	31.734924 
520.149806  	31.577827 
521.586684  	31.584090 
523.023562  	31.788491 
524.460440  	31.800589 
525.897318  	31.854257 
527.334196  	31.997345 
528.771074  	32.191521 
530.207951  	32.205964 
531.644829  	32.093152 
533.081707  	32.192436 
534.518585  	32.197525 
535.955463  	32.169738 
537.392341  	32.388318 
538.829219  	32.479152 
540.266097  	32.469301 
541.702975  	32.487443 
543.139853  	32.591958 
544.576731  	32.873605 
546.013609  	32.998865 
547.450486  	33.022561 
548.887364  	32.988502 
550.324242  	32.801232 
551.761120  	32.956840 
553.197998  	33.198267 
554.634876  	33.169505 
556.071754  	33.304739 
557.508632  	33.400153 
558.945510  	33.482031 
560.382388  	33.765132 
561.819266  	33.740762 
563.256144  	33.706466 
564.693021  	34.002583 
566.129899  	34.143836 
567.566777  	34.135064 
569.003655  	34.118918 
570.440533  	34.194044 
571.877411  	34.383188 
573.314289  	34.375073 
574.751167  	34.409958 
576.188045  	34.670125 
577.624923  	34.784778 
579.061801  	34.827817 
580.498679  	34.914434 
581.935556  	35.042160 
583.372434  	35.206643 
584.809312  	35.198096 
586.246190  	35.211190 
587.683068  	35.380080 
589.119946  	35.516392 
590.556824  	35.727826 
591.993702  	35.865919 
593.430580  	35.855341 
594.867458  	35.989033 
596.304336  	36.147334 
597.741214  	36.278186 
599.178091  	36.421248 
600.614969  	36.453471 
602.051847  	36.560856 
603.488725  	36.729092 
604.925603  	36.872051 
606.362481  	37.071696 
607.799359  	37.159759 
609.236237  	37.177067 
610.673115  	37.339790 
612.109993  	37.525330 
613.546871  	37.723386 
614.983749  	37.867152 
616.420626  	37.940850 
617.857504  	38.104433 
619.294382  	38.273421 
620.731260  	38.368707 
622.168138  	38.487489 
623.605016  	38.607407 
625.041894  	38.743713 
626.478772  	38.868473 
627.915650  	38.939293 
629.352528  	39.021360 
630.789406  	39.070453 
632.226284  	39.131599 
633.663161  	39.282352 
635.100039  	39.405509 
636.536917  	39.564347 
637.973795  	39.740920 
639.410673  	39.806444 
640.847551  	39.955498 
642.284429  	40.202937 
643.721307  	40.351353 
645.158185  	40.478113 
646.595063  	40.604489 
648.031941  	40.759816 
649.468819  	40.914520 
650.905696  	41.060219 
652.342574  	41.237131 
653.779452  	41.349319 
655.216330  	41.480630 
656.653208  	41.737609 
658.090086  	41.933256 
659.526964  	42.071987 
660.963842  	42.202317 
662.400720  	42.316786 
663.837598  	42.506759 
665.274476  	42.653347 
666.711354  	42.769701 
668.148231  	43.018379 
669.585109  	43.252845 
671.021987  	43.368490 
672.458865  	43.554333 
673.895743  	43.740027 
675.332621  	43.920911 
676.769499  	44.131162 
678.206377  	44.285436 
679.643255  	44.469256 
681.080133  	44.708296 
682.517011  	44.907590 
683.953889  	45.094670 
685.390766  	45.315282 
686.827644  	45.571599 
688.264522  	45.787893 
689.701400  	45.926937 
691.138278  	46.088533 
692.575156  	46.270562 
694.012034  	46.463864 
695.448912  	46.686034 
696.885790  	46.895167 
698.322668  	47.103636 
699.759546  	47.305749 
701.196424  	47.491563 
702.633301  	47.683443 
704.070179  	47.882276 
705.507057  	48.094338 
706.943935  	48.322660 
708.380813  	48.488538 
709.817691  	48.665981 
711.254569  	48.899909 
712.691447  	49.115125 
714.128325  	49.343462 
715.565203  	49.579670 
717.002081  	49.776987 
718.438959  	49.996359 
719.875837  	50.242936 
721.312714  	50.467072 
722.749592  	50.665454 
724.186470  	50.828343 
725.623348  	51.082448 
727.060226  	51.336664 
728.497104  	51.593043 
729.933982  	51.782630 
731.370860  	51.963508 
732.807738  	52.141613 
734.244616  	52.382817 
735.681494  	52.670991 
737.118372  	52.940577 
738.555249  	53.202095 
739.992127  	53.442051 
741.429005  	53.629406 
742.865883  	53.798938 
744.302761  	54.045776 
745.739639  	54.306242 
747.176517  	54.494047 
748.613395  	54.721793 
750.050273  	54.981738 
751.487151  	55.191445 
752.924029  	55.392560 
754.360907  	55.582178 
755.797784  	55.827202 
757.234662  	56.142407 
758.671540  	56.393365 
760.108418  	56.664793 
761.545296  	56.984237 
762.982174  	57.205473 
764.419052  	57.421219 
765.855930  	57.677133 
767.292808  	57.907832 
768.729686  	58.165129 
770.166564  	58.385245 
771.603442  	58.561835 
773.040319  	58.812660 
774.477197  	59.069523 
775.914075  	59.288201 
777.350953  	59.554741 
778.787831  	59.869938 
780.224709  	60.157774 
781.661587  	60.395245 
783.098465  	60.644177 
784.535343  	60.864548 
785.972221  	61.024919 
787.409099  	61.280214 
788.845977  	61.609252 
790.282854  	61.900558 
791.719732  	62.201911 
793.156610  	62.459311 
794.593488  	62.675957 
796.030366  	62.948967 
797.467244  	63.204156 
798.904122  	63.460792 
800.341000  	63.749205 
801.777878  	63.969325 
803.214756  	64.190581 
804.651634  	64.462398 
806.088512  	64.733476 
807.525389  	65.009082 
808.962267  	65.223444 
810.399145  	65.422741 
811.836023  	65.715739 
813.272901  	66.003404 
814.709779  	66.267371 
816.146657  	66.557401 
817.583535  	66.814316 
819.020413  	67.072205 
820.457291  	67.358090 
821.894169  	67.609134 
823.331047  	67.841469 
824.767924  	68.114671 
826.204802  	68.423593 
827.641680  	68.677722 
829.078558  	68.881002 
830.515436  	69.148218 
831.952314  	69.454982 
833.389192  	69.761839 
834.826070  	70.065350 
836.262948  	70.276260 
837.699826  	70.465146 
839.136704  	70.749257 
840.573582  	71.022566 
842.010459  	71.242375 
843.447337  	71.512572 
844.884215  	71.823321 
846.321093  	72.063958 
847.757971  	72.262231 
849.194849  	72.531256 
850.631727  	72.805840 
852.068605  	73.044227 
853.505483  	73.322708 
854.942361  	73.569321 
856.379239  	73.794298 
857.816117  	74.095735 
859.252994  	74.371619 
860.689872  	74.604767 
862.126750  	74.864294 
863.563628  	75.114362 
865.000506  	75.367575 
866.437384  	75.610166 
867.874262  	75.860657 
869.311140  	76.169293 
870.748018  	76.421473 
872.184896  	76.637545 
873.621774  	76.919353 
875.058652  	77.179570 
876.495529  	77.427228 
877.932407  	77.698856 
879.369285  	77.940415 
880.806163  	78.181572 
882.243041  	78.419483 
883.679919  	78.646638 
885.116797  	78.873263 
886.553675  	79.064783 
887.990553  	79.268399 
889.427431  	79.480044 
890.864309  	79.670472 
892.301187  	79.906367 
893.738064  	80.153283 
895.174942  	80.376352 
896.611820  	80.577578 
898.048698  	80.735608 
899.485576  	80.944773 
900.922454  	81.175156 
902.359332  	81.339277 
903.796210  	81.526977 
905.233088  	81.702012 
906.669966  	81.859602 
908.106844  	82.103493 
909.543722  	82.306165 
910.980599  	82.411074 
912.417477  	82.526074 
913.854355  	82.674310 
915.291233  	82.856855 
916.728111  	83.009800 
918.164989  	83.144202 
919.601867  	83.346190 
921.038745  	83.527022 
922.475623  	83.669146 
923.912501  	83.812883 
925.349379  	83.909078 
926.786257  	84.032858 
928.223134  	84.208422 
929.660012  	84.386063 
931.096890  	84.587410 
932.533768  	84.743710 
933.970646  	84.866306 
935.407524  	85.030870 
936.844402  	85.191717 
938.281280  	85.372759 
939.718158  	85.556493 
941.155036  	85.675776 
942.591914  	85.779374 
944.028792  	85.861148 
945.465670  	85.957866 
946.902547  	86.113406 
948.339425  	86.236078 
949.776303  	86.359567 
951.213181  	86.497350 
952.650059  	86.569100 
954.086937  	86.663789 
955.523815  	86.806316 
956.960693  	86.907360 
958.397571  	86.971395 
959.834449  	87.044935 
961.271327  	87.170977 
962.708205  	87.275687 
964.145082  	87.300170 
965.581960  	87.352269 
967.018838  	87.430312 
968.455716  	87.490864 
969.892594  	87.567500 
971.329472  	87.621226 
972.766350  	87.666890 
974.203228  	87.737742 
975.640106  	87.798386 
977.076984  	87.858210 
978.513862  	87.910874 
979.950740  	87.963910 
981.387617  	88.018877 
982.824495  	88.045892 
984.261373  	88.105774 
985.698251  	88.152139 
987.135129  	88.128050 
988.572007  	88.157425 
990.008885  	88.180184 
991.445763  	88.125164 
992.882641  	88.134819 
994.319519  	88.185783 
995.756397  	88.224668 
997.193275  	88.317041 
998.630152  	88.423676 
1000.067030  	88.520118 
1001.503908  	88.637907 
1002.940786  	88.760334 
1004.377664  	88.841169 
1005.814542  	88.868591 
1007.251420  	88.925484 
1008.688298  	88.989839 
1010.125176  	89.003999 
1011.562054  	89.077143 
1012.998932  	89.163347 
1014.435810  	89.155365 
1015.872687  	89.143805 
1017.309565  	89.121550 
1018.746443  	89.060031 
1020.183321  	89.027551 
1021.620199  	88.996591 
1023.057077  	88.942533 
1024.493955  	88.870802 
1025.930833  	88.779452 
1027.367711  	88.694913 
1028.804589  	88.603628 
1030.241467  	88.539416 
1031.678345  	88.526386 
1033.115222  	88.469767 
1034.552100  	88.365011 
1035.988978  	88.286673 
1037.425856  	88.237526 
1038.862734  	88.172156 
1040.299612  	88.076068 
1041.736490  	88.030535 
1043.173368  	88.046198 
1044.610246  	88.056547 
1046.047124  	88.091228 
1047.484002  	88.140527 
1048.920880  	88.213951 
1050.357757  	88.370067 
1051.794635  	88.510083 
1053.231513  	88.620289 
1054.668391  	88.754671 
1056.105269  	88.849436 
1057.542147  	88.972061 
1058.979025  	89.107467 
1060.415903  	89.148844 
1061.852781  	89.223754 
1063.289659  	89.336079 
1064.726537  	89.407340 
1066.163415  	89.501599 
1067.600292  	89.560602 
1069.037170  	89.585932 
1070.474048  	89.657310 
1071.910926  	89.730488 
1073.347804  	89.799890 
1074.784682  	89.834220 
1076.221560  	89.837195 
1077.658438  	89.876581 
1079.095316  	89.898030 
1080.532194  	89.934479 
1081.969072  	89.984821 
1083.405950  	89.947590 
1084.842827  	89.946470 
1086.279705  	89.994784 
1087.716583  	89.987187 
1089.153461  	90.013550 
1090.590339  	90.034052 
1092.027217  	90.001193 
1093.464095  	90.007206 
1094.900973  	90.005234 
1096.337851  	89.998244 
1097.774729  	90.020680 
1099.211607  	89.990857 
1100.648485  	89.928820 
1102.085362  	89.883111 
1103.522240  	89.862514 
1104.959118  	89.871320 
1106.395996  	89.849603 
1107.832874  	89.796501 
1109.269752  	89.755551 
1110.706630  	89.733258 
1112.143508  	89.727757 
1113.580386  	89.711186 
1115.017264  	89.728807 
1116.454142  	89.818841 
1117.891020  	89.903609 
1119.327897  	89.968360 
1120.764775  	90.023887 
1122.201653  	90.077981 
1123.638531  	90.170456 
1125.075409  	90.252633 
1126.512287  	90.325967 
1127.949165  	90.409081 
1129.386043  	90.444152 
1130.822921  	90.493330 
1132.259799  	90.551932 
1133.696677  	90.556315 
1135.133555  	90.590840 
1136.570432  	90.630703 
1138.007310  	90.645346 
1139.444188  	90.677308 
1140.881066  	90.653214 
1142.317944  	90.628942 
1143.754822  	90.658395 
1145.191700  	90.645559 
1146.628578  	90.638152 
1148.065456  	90.639201 
1149.502334  	90.603636 
1150.939212  	90.603799 
1152.376090  	90.592119 
1153.812967  	90.563157 
1155.249845  	90.593057 
1156.686723  	90.609880 
1158.123601  	90.599136 
1159.560479  	90.582337 
1160.997357  	90.544544 
1162.434235  	90.540227 
1163.871113  	90.542322 
1165.307991  	90.525369 
1166.744869  	90.521617 
1168.181747  	90.492561 
1169.618625  	90.474226 
1171.055502  	90.491434 
1172.492380  	90.485268 
1173.929258  	90.477908 
1175.366136  	90.468233 
1176.803014  	90.460330 
1178.239892  	90.482590 
1179.676770  	90.465973 
1181.113648  	90.431571 
1182.550526  	90.436926 
1183.987404  	90.427756 
1185.424282  	90.413299 
1186.861160  	90.420400 
1188.298038  	90.427326 
1189.734915  	90.419750 
1191.171793  	90.395155 
1192.608671  	90.402132 
1194.045549  	90.407199 
1195.482427  	90.357294 
1196.919305  	90.343305 
1198.356183  	90.357213 
1199.793061  	90.336593 
1201.229939  	90.321189 
1202.666817  	90.296495 
1204.103695  	90.275987 
1205.540573  	90.274343 
1206.977450  	90.243148 
1208.414328  	90.238414 
1209.851206  	90.256135 
1211.288084  	90.236043 
1212.724962  	90.235761 
1214.161840  	90.236918 
1215.598718  	90.215359 
1217.035596  	90.215822 
1218.472474  	90.210179 
1219.909352  	90.212222 
1221.346230  	90.214924 
1222.783108  	90.183202 
1224.219985  	90.196766 
1225.656863  	90.222733 
1227.093741  	90.191522 
1228.530619  	90.186963 
1229.967497  	90.201236 
1231.404375  	90.188139 
1232.841253  	90.184989 
1234.278131  	90.187448 
1235.715009  	90.188042 
1237.151887  	90.183044 
1238.588765  	90.171285 
1240.025643  	90.178101 
1241.462520  	90.183506 
1242.899398  	90.177000 
1244.336276  	90.174598 
1245.773154  	90.178460 
1247.210032  	90.190542 
1248.646910  	90.182874 
1250.083788  	90.177870 
1251.520666  	90.210442 
1252.957544  	90.229608 
1254.394422  	90.240057 
1255.831300  	90.242145 
1257.268178  	90.205128 
1258.705055  	90.202198 
1260.141933  	90.220457 
1261.578811  	90.205386 
1263.015689  	90.226252 
1264.452567  	90.257742 
1265.889445  	90.245438 
1267.326323  	90.235679 
1268.763201  	90.238738 
1270.200079  	90.246896 
1271.636957  	90.244059 
1273.073835  	90.229289 
1274.510713  	90.234114 
1275.947590  	90.227657 
1277.384468  	90.220252 
1278.821346  	90.233121 
1280.258224  	90.212097 
1281.695102  	90.196872 
1283.131980  	90.212428 
1284.568858  	90.199813 
1286.005736  	90.182282 
1287.442614  	90.166712 
1288.879492  	90.150932 
1290.316370  	90.164161 
1291.753248  	90.166175 
1293.190125  	90.166171 
1294.627003  	90.182238 
1296.063881  	90.167852 
1297.500759  	90.153018 
1298.937637  	90.152412 
1300.374515  	90.138544 
1301.811393  	90.131155 
1303.248271  	90.121015 
1304.685149  	90.109214 
1306.122027  	90.104637 
1307.558905  	90.091976 
1308.995783  	90.101965 
1310.432660  	90.103614 
1311.869538  	90.089061 
1313.306416  	90.081459 
1314.743294  	90.057386 
1316.180172  	90.038921 
1317.617050  	90.047224 
1319.053928  	90.031951 
1320.490806  	90.026494 
1321.927684  	90.030945 
1323.364562  	90.030857 
1324.801440  	90.035752 
1326.238318  	90.033433 
1327.675195  	90.019041 
1329.112073  	90.029177 
1330.548951  	90.009074 
1331.985829  	90.008152 
1333.422707  	90.031531 
1334.859585  	90.016313 
1336.296463  	90.014719 
1337.733341  	90.020720 
1339.170219  	90.005486 
1340.607097  	90.003266 
1342.043975  	90.007009 
1343.480853  	90.012235 
1344.917730  	90.021918 
1346.354608  	90.036698 
1347.791486  	90.056775 
1349.228364  	90.065600 
1350.665242  	90.068942 
1352.102120  	90.083427 
1353.538998  	90.082760 
1354.975876  	90.095111 
1356.412754  	90.113836 
1357.849632  	90.114282 
1359.286510  	90.110536 
1360.723388  	90.105863 
1362.160265  	90.069131 
1363.597143  	90.053306 
1365.034021  	90.040673 
1366.470899  	90.039234 
1367.907777  	90.045175 
1369.344655  	90.017327 
1370.781533  	90.007333 
1372.218411  	90.014592 
1373.655289  	90.007181 
1375.092167  	90.015986 
1376.529045  	90.027903 
1377.965923  	90.031752 
1379.402800  	90.027465 
1380.839678  	90.020847 
1382.276556  	90.018483 
1383.713434  	89.995363 
1385.150312  	89.967334 
1386.587190  	89.943257 
1388.024068  	89.932032 
1389.460946  	89.947995 
1390.897824  	89.950712 
1392.334702  	89.935850 
1393.771580  	89.933966 
1395.208458  	89.905539 
1396.645335  	89.867393 
1398.082213  	89.874667 
1399.519091  	89.868680 
1400.955969  	89.839638 
1402.392847  	89.827228 
1403.829725  	89.794807 
1405.266603  	89.771132 
1406.703481  	89.767576 
1408.140359  	89.753438 
1409.577237  	89.748570 
1411.014115  	89.751582 
1412.450993  	89.736326 
1413.887871  	89.733742 
1415.324748  	89.705796 
1416.761626  	89.688824 
1418.198504  	89.709543 
1419.635382  	89.677270 
1421.072260  	89.659770 
1422.509138  	89.643116 
1423.946016  	89.615738 
1425.382894  	89.613666 
1426.819772  	89.619155 
1428.256650  	89.626114 
1429.693528  	89.654229 
1431.130406  	89.664811 
1432.567283  	89.645454 
1434.004161  	89.622535 
1435.441039  	89.618032 
1436.877917  	89.638872 
1438.314795  	89.632168 
1439.751673  	89.624693 
1441.188551  	89.646574 
1442.625429  	89.642834 
1444.062307  	89.628727 
1445.499185  	89.652272 
1446.936063  	89.679659 
1448.372941  	89.740163 
1449.809818  	89.729143 
1451.246696  	89.670181 
1452.683574  	89.650037 
1454.120452  	89.620763 
1455.557330  	89.621922 
1456.994208  	89.610588 
1458.431086  	89.556399 
1459.867964  	89.572005 
1461.304842  	89.594707 
1462.741720  	89.603503 
1464.178598  	89.638003 
1465.615476  	89.623572 
1467.052353  	89.609940 
1468.489231  	89.635294 
1469.926109  	89.632510 
1471.362987  	89.639374 
1472.799865  	89.633124 
1474.236743  	89.607893 
1475.673621  	89.614592 
1477.110499  	89.622075 
1478.547377  	89.661058 
1479.984255  	89.726209 
1481.421133  	89.726522 
1482.858011  	89.686896 
1484.294888  	89.679734 
1485.731766  	89.658942 
1487.168644  	89.637987 
1488.605522  	89.595783 
1490.042400  	89.557454 
1491.479278  	89.545963 
1492.916156  	89.524349 
1494.353034  	89.517062 
1495.789912  	89.506705 
1497.226790  	89.449609 
1498.663668  	89.419842 
1500.100546  	89.403138 
1501.537423  	89.381178 
1502.974301  	89.353169 
1504.411179  	89.330686 
1505.848057  	89.326512 
1507.284935  	89.220147 
1508.721813  	89.097227 
1510.158691  	89.066891 
1511.595569  	89.044196 
1513.032447  	88.993433 
1514.469325  	88.941504 
1515.906203  	88.877650 
1517.343081  	88.843133 
1518.779958  	88.815802 
1520.216836  	88.758749 
1521.653714  	88.697293 
1523.090592  	88.620658 
1524.527470  	88.564786 
1525.964348  	88.526722 
1527.401226  	88.451487 
1528.838104  	88.409781 
1530.274982  	88.368059 
1531.711860  	88.265454 
1533.148738  	88.217713 
1534.585616  	88.164786 
1536.022493  	88.072417 
1537.459371  	88.053870 
1538.896249  	88.014420 
1540.333127  	87.886378 
1541.770005  	87.831349 
1543.206883  	87.707095 
1544.643761  	87.610749 
1546.080639  	87.542593 
1547.517517  	87.374885 
1548.954395  	87.317662 
1550.391273  	87.225419 
1551.828151  	87.140866 
1553.265028  	87.087428 
1554.701906  	86.969850 
1556.138784  	86.874915 
1557.575662  	86.832944 
1559.012540  	86.671753 
1560.449418  	86.575475 
1561.886296  	86.464134 
1563.323174  	86.345576 
1564.760052  	86.221655 
1566.196930  	86.063198 
1567.633808  	85.948934 
1569.070686  	85.842736 
1570.507563  	85.671432 
1571.944441  	85.536161 
1573.381319  	85.370284 
1574.818197  	85.157143 
1576.255075  	85.002109 
1577.691953  	84.747108 
1579.128831  	84.506751 
1580.565709  	84.292551 
1582.002587  	84.039524 
1583.439465  	83.825878 
1584.876343  	83.522821 
1586.313221  	83.193737 
1587.750098  	82.947921 
1589.186976  	82.657966 
1590.623854  	82.314112 
1592.060732  	81.980608 
1593.497610  	81.595007 
1594.934488  	81.269308 
1596.371366  	80.914025 
1597.808244  	80.505732 
1599.245122  	80.168124 
1600.682000  	79.702505 
1602.118878  	79.190406 
1603.555756  	78.780984 
1604.992633  	78.269884 
1606.429511  	77.838873 
1607.866389  	77.384006 
1609.303267  	76.810742 
1610.740145  	76.372091 
1612.177023  	75.766396 
1613.613901  	75.131833 
1615.050779  	74.723703 
1616.487657  	74.164677 
1617.924535  	73.643234 
1619.361413  	73.190285 
1620.798291  	72.626460 
1622.235168  	72.236365 
1623.672046  	71.793969 
1625.108924  	71.315385 
1626.545802  	71.055832 
1627.982680  	70.671650 
1629.419558  	70.360539 
1630.856436  	70.173653 
1632.293314  	69.844690 
1633.730192  	69.675957 
1635.167070  	69.674579 
1636.603948  	69.746127 
1638.040826  	69.860817 
1639.477703  	69.781926 
1640.914581  	69.855764 
1642.351459  	70.105738 
1643.788337  	70.204645 
1645.225215  	70.409600 
1646.662093  	70.781655 
1648.098971  	71.078910 
1649.535849  	71.325859 
1650.972727  	71.389464 
1652.409605  	71.541237 
1653.846483  	72.773314 
1655.283361  	73.025714 
1656.720239  	73.178548 
1658.157116  	73.630917 
1659.593994  	74.005915 
1661.030872  	74.422221 
1662.467750  	74.888066 
1663.904628  	75.366361 
1665.341506  	75.900912 
1666.778384  	76.286004 
1668.215262  	76.691248 
1669.652140  	77.362153 
1671.089018  	77.875006 
1672.525896  	78.258895 
1673.962774  	78.696244 
1675.399651  	79.232229 
1676.836529  	79.826914 
1678.273407  	80.137949 
1679.710285  	80.555490 
1681.147163  	81.094668 
1682.584041  	81.496959 
1684.020919  	81.992944 
1685.457797  	82.695174 
1686.894675  	82.989879 
1688.331553  	83.415649 
1689.768431  	83.918717 
1691.205309  	84.349793 
1692.642186  	84.817040 
1694.079064  	85.138927 
1695.515942  	85.502831 
1696.952820  	85.975627 
1698.389698  	86.213053 
1699.826576  	86.533568 
1701.263454  	87.041772 
1702.700332  	87.235802 
1704.137210  	87.537353 
1705.574088  	87.864584 
1707.010966  	88.156688 
1708.447844  	88.533564 
1709.884721  	88.802397 
1711.321599  	89.072481 
1712.758477  	89.402442 
1714.195355  	89.687234 
1715.632233  	90.003352 
1717.069111  	90.299440 
1718.505989  	90.538377 
1719.942867  	90.821975 
1721.379745  	91.030849 
1722.816623  	91.293888 
1724.253501  	91.603979 
1725.690379  	91.826546 
1727.127256  	92.077526 
1728.564134  	92.258093 
1730.001012  	92.372583 
1731.437890  	92.536259 
1732.874768  	92.678374 
1734.311646  	92.832661 
1735.748524  	93.007162 
1737.185402  	93.071971 
1738.622280  	93.209546 
1740.059158  	93.346886 
1741.496036  	93.397686 
1742.932914  	93.515496 
1744.369791  	93.633600 
1745.806669  	93.771521 
1747.243547  	93.959530 
1748.680425  	94.018661 
1750.117303  	94.095728 
1751.554181  	94.244065 
1752.991059  	94.320051 
1754.427937  	94.440934 
1755.864815  	94.549067 
1757.301693  	94.584784 
1758.738571  	94.644443 
1760.175449  	94.698654 
1761.612326  	94.803531 
1763.049204  	94.916421 
1764.486082  	94.964425 
1765.922960  	95.069492 
1767.359838  	95.119707 
1768.796716  	95.123715 
1770.233594  	95.211596 
1771.670472  	95.271060 
1773.107350  	95.294970 
1774.544228  	95.356195 
1775.981106  	95.353971 
1777.417984  	95.404675 
1778.854861  	95.469921 
1780.291739  	95.494417 
1781.728617  	95.558080 
1783.165495  	95.604464 
1784.602373  	95.664103 
1786.039251  	95.737069 
1787.476129  	95.726616 
1788.913007  	95.728801 
1790.349885  	95.790058 
1791.786763  	95.795234 
1793.223641  	95.855880 
1794.660519  	95.837164 
1796.097396  	95.834013 
1797.534274  	95.906522 
1798.971152  	95.902551 
1800.408030  	95.961987 
1801.844908  	95.998591 
1803.281786  	95.955452 
1804.718664  	96.064969 
1806.155542  	96.102919 
1807.592420  	96.036714 
1809.029298  	96.050409 
1810.466176  	96.044875 
1811.903054  	96.143812 
1813.339931  	96.253655 
1814.776809  	96.198376 
1816.213687  	96.205441 
1817.650565  	96.212378 
1819.087443  	96.230698 
1820.524321  	96.287258 
1821.961199  	96.291927 
1823.398077  	96.313967 
1824.834955  	96.349759 
1826.271833  	96.282587 
1827.708711  	96.320840 
1829.145589  	96.378304 
1830.582466  	96.305989 
1832.019344  	96.330913 
1833.456222  	96.374987 
1834.893100  	96.397358 
1836.329978  	96.409816 
1837.766856  	96.369427 
1839.203734  	96.408086 
1840.640612  	96.451860 
1842.077490  	96.425280 
1843.514368  	96.450401 
1844.951246  	96.398053 
1846.388124  	96.336425 
1847.825001  	96.376318 
1849.261879  	96.393941 
1850.698757  	96.447261 
1852.135635  	96.506475 
1853.572513  	96.503432 
1855.009391  	96.534098 
1856.446269  	96.531998 
1857.883147  	96.500618 
1859.320025  	96.518664 
1860.756903  	96.497029 
1862.193781  	96.486481 
1863.630659  	96.506626 
1865.067536  	96.483949 
1866.504414  	96.524367 
1867.941292  	96.497086 
1869.378170  	96.414594 
1870.815048  	96.438282 
1872.251926  	96.460960 
1873.688804  	96.553502 
1875.125682  	96.583727 
1876.562560  	96.459650 
1877.999438  	96.482074 
1879.436316  	96.513645 
1880.873194  	96.523105 
1882.310072  	96.564725 
1883.746949  	96.514689 
1885.183827  	96.488698 
1886.620705  	96.539016 
1888.057583  	96.499453 
1889.494461  	96.459709 
1890.931339  	96.478852 
1892.368217  	96.517296 
1893.805095  	96.584042 
1895.241973  	96.576564 
1896.678851  	96.587929 
1898.115729  	96.637054 
1899.552607  	96.577998 
1900.989484  	96.578521 
1902.426362  	96.581267 
1903.863240  	96.540632 
1905.300118  	96.529587 
1906.736996  	96.499635 
1908.173874  	96.474031 
1909.610752  	96.433804 
1911.047630  	96.346034 
1912.484508  	96.401078 
1913.921386  	96.478690 
1915.358264  	96.447852 
1916.795142  	96.491011 
1918.232019  	96.427945 
1919.668897  	96.402149 
1921.105775  	96.512540 
1922.542653  	96.415782 
1923.979531  	96.331540 
1925.416409  	96.358486 
1926.853287  	96.279986 
1928.290165  	96.243079 
1929.727043  	96.235774 
1931.163921  	96.282454 
1932.600799  	96.379039 
1934.037677  	96.282748 
1935.474554  	96.310170 
1936.911432  	96.365242 
1938.348310  	96.166378 
1939.785188  	96.117145 
1941.222066  	96.126953 
1942.658944  	96.049738 
1944.095822  	96.075810 
1945.532700  	96.048491 
1946.969578  	96.110045 
1948.406456  	96.148739 
1949.843334  	96.112200 
1951.280212  	96.233998 
1952.717089  	96.335096 
1954.153967  	96.259732 
1955.590845  	96.366847 
1957.027723  	96.199087 
1958.464601  	96.053489 
1959.901479  	96.029778 
1961.338357  	95.734967 
1962.775235  	95.917634 
1964.212113  	96.253790 
1965.648991  	96.142990 
1967.085869  	96.234934 
1968.522747  	96.155705 
1969.959624  	96.020660 
1971.396502  	96.070042 
1972.833380  	95.865079 
1974.270258  	95.808115 
1975.707136  	95.890573 
1977.144014  	95.746292 
1978.580892  	95.729027 
1980.017770  	95.679104 
1981.454648  	95.698248 
1982.891526  	95.810791 
1984.328404  	95.506927 
1985.765282  	95.265007 
1987.202159  	95.720290 
1988.639037  	96.111726 
1990.075915  	96.188772 
1991.512793  	95.820040 
1992.949671  	95.485159 
1994.386549  	95.647430 
1995.823427  	95.679474 
1997.260305  	95.751413 
1998.697183  	95.980211 
2000.134061  	96.032062 
2001.570939  	96.298189 
2003.007817  	96.253662 
2004.444694  	95.828341 
2005.881572  	95.775378 
2007.318450  	95.564178 
2008.755328  	95.246758 
2010.192206  	95.275302 
2011.629084  	95.124181 
2013.065962  	95.057547 
2014.502840  	95.235484 
2015.939718  	95.350332 
2017.376596  	95.482831 
2018.813474  	95.372154 
2020.250352  	95.163714 
2021.687229  	95.054763 
2023.124107  	95.111796 
2024.560985  	95.527531 
2025.997863  	95.587929 
2027.434741  	95.280835 
2028.871619  	95.228110 
2030.308497  	95.177695 
2031.745375  	95.430151 
2033.182253  	95.796131 
2034.619131  	95.762097 
2036.056009  	95.941971 
2037.492887  	95.942256 
2038.929764  	95.829179 
2040.366642  	95.993052 
2041.803520  	95.601711 
2043.240398  	95.262934 
2044.677276  	95.493375 
2046.114154  	95.449006 
2047.551032  	95.397648 
2048.987910  	95.365176 
2050.424788  	95.049624 
2051.861666  	94.976980 
2053.298544  	95.104703 
2054.735422  	95.310306 
2056.172299  	95.437141 
2057.609177  	95.192821 
2059.046055  	95.028382 
2060.482933  	95.005495 
2061.919811  	94.941390 
2063.356689  	95.057475 
2064.793567  	95.091466 
2066.230445  	95.089513 
2067.667323  	95.187517 
2069.104201  	95.119611 
2070.541079  	95.201196 
2071.977957  	95.213522 
2073.414834  	94.895084 
2074.851712  	94.914211 
2076.288590  	95.066571 
2077.725468  	95.061038 
2079.162346  	95.214714 
2080.599224  	95.189658 
2082.036102  	95.064955 
2083.472980  	95.124375 
2084.909858  	95.127153 
2086.346736  	95.218878 
2087.783614  	95.320211 
2089.220492  	95.221135 
2090.657369  	95.155657 
2092.094247  	95.044553 
2093.531125  	94.959049 
2094.968003  	95.032943 
2096.404881  	94.917485 
2097.841759  	94.753121 
2099.278637  	94.790869 
2100.715515  	94.846772 
2102.152393  	94.860579 
2103.589271  	94.787929 
2105.026149  	94.734654 
2106.463027  	94.765934 
2107.899904  	94.741951 
2109.336782  	94.729906 
2110.773660  	94.649599 
2112.210538  	94.525556 
2113.647416  	94.566624 
2115.084294  	94.526744 
2116.521172  	94.422233 
2117.958050  	94.474892 
2119.394928  	94.525375 
2120.831806  	94.626427 
2122.268684  	94.727343 
2123.705562  	94.726151 
2125.142440  	94.786642 
2126.579317  	94.660170 
2128.016195  	94.488337 
2129.453073  	94.657710 
2130.889951  	94.729007 
2132.326829  	94.694572 
2133.763707  	94.854125 
2135.200585  	94.930597 
2136.637463  	94.956852 
2138.074341  	94.919640 
2139.511219  	94.834647 
2140.948097  	94.887999 
2142.384975  	94.729022 
2143.821852  	94.466224 
2145.258730  	94.458908 
2146.695608  	94.639552 
2148.132486  	94.891297 
2149.569364  	94.591296 
2151.006242  	94.136367 
2152.443120  	94.470106 
2153.879998  	94.732530 
2155.316876  	94.652778 
2156.753754  	94.676048 
2158.190632  	94.210416 
2159.627510  	93.997888 
2161.064387  	94.421765 
2162.501265  	94.571584 
2163.938143  	94.727761 
2165.375021  	94.714876 
2166.811899  	94.618569 
2168.248777  	94.716275 
2169.685655  	94.557472 
2171.122533  	94.460009 
2172.559411  	94.526111 
2173.996289  	94.464567 
2175.433167  	94.841358 
2176.870045  	95.290362 
2178.306922  	95.186235 
2179.743800  	94.972859 
2181.180678  	94.785328 
2182.617556  	94.702675 
2184.054434  	94.856622 
2185.491312  	95.105586 
2186.928190  	95.376617 
2188.365068  	95.278736 
2189.801946  	94.936214 
2191.238824  	94.870912 
2192.675702  	94.947648 
2194.112580  	94.973349 
2195.549457  	94.960231 
2196.986335  	95.123274 
2198.423213  	95.531844 
2199.860091  	95.560331 
2201.296969  	95.373429 
2202.733847  	95.388545 
2204.170725  	95.174415 
2205.607603  	95.003192 
2207.044481  	95.100740 
2208.481359  	95.075986 
2209.918237  	95.304943 
2211.355115  	95.672075 
2212.791992  	95.598451 
2214.228870  	95.494858 
2215.665748  	95.594067 
2217.102626  	95.739748 
2218.539504  	95.807672 
2219.976382  	95.577201 
2221.413260  	95.408070 
2222.850138  	95.574762 
2224.287016  	95.671897 
2225.723894  	95.612107 
2227.160772  	95.568722 
2228.597650  	95.582858 
2230.034527  	95.749903 
2231.471405  	95.990013 
2232.908283  	96.074619 
2234.345161  	96.094492 
2235.782039  	96.257009 
2237.218917  	96.275998 
2238.655795  	96.069218 
2240.092673  	96.078613 
2241.529551  	96.145134 
2242.966429  	96.036297 
2244.403307  	96.050463 
2245.840185  	96.073402 
2247.277062  	95.992135 
2248.713940  	96.003816 
2250.150818  	96.013333 
2251.587696  	96.064108 
2253.024574  	96.222555 
2254.461452  	96.325328 
2255.898330  	96.306688 
2257.335208  	96.164977 
2258.772086  	96.182041 
2260.208964  	96.382286 
2261.645842  	96.333751 
2263.082720  	96.275457 
2264.519597  	96.429992 
2265.956475  	96.397921 
2267.393353  	96.286663 
2268.830231  	96.290208 
2270.267109  	96.244659 
2271.703987  	96.242217 
2273.140865  	96.356111 
2274.577743  	96.503817 
2276.014621  	96.629539 
2277.451499  	96.657371 
2278.888377  	96.592068 
2280.325255  	96.453461 
2281.762132  	96.400099 
2283.199010  	96.526215 
2284.635888  	96.581123 
2286.072766  	96.524784 
2287.509644  	96.513971 
2288.946522  	96.506434 
2290.383400  	96.490741 
2291.820278  	96.469931 
2293.257156  	96.460549 
2294.694034  	96.511287 
2296.130912  	96.507384 
2297.567790  	96.456901 
2299.004667  	96.477335 
2300.441545  	96.481308 
2301.878423  	96.424184 
2303.315301  	96.388774 
2304.752179  	96.398640 
2306.189057  	96.404755 
2307.625935  	96.376102 
2309.062813  	96.415356 
2310.499691  	96.491170 
2311.936569  	96.446623 
2313.373447  	96.390277 
2314.810325  	96.416128 
2316.247202  	96.455361 
2317.684080  	96.481382 
2319.120958  	96.433605 
2320.557836  	96.361187 
2321.994714  	96.327421 
2323.431592  	96.276872 
2324.868470  	96.323287 
2326.305348  	96.455641 
2327.742226  	96.497856 
2329.179104  	96.508757 
2330.615982  	96.547105 
2332.052860  	96.552952 
2333.489737  	96.552628 
2334.926615  	96.570498 
2336.363493  	96.610187 
2337.800371  	96.631414 
2339.237249  	96.626870 
2340.674127  	96.618178 
2342.111005  	96.531490 
2343.547883  	96.491633 
2344.984761  	96.550813 
2346.421639  	96.510168 
2347.858517  	96.519790 
2349.295395  	96.660709 
2350.732273  	96.746120 
2352.169150  	96.793489 
2353.606028  	96.874788 
2355.042906  	96.929925 
2356.479784  	96.939619 
2357.916662  	96.880108 
2359.353540  	96.840931 
2360.790418  	96.883576 
2362.227296  	96.839014 
2363.664174  	96.797246 
2365.101052  	96.901094 
2366.537930  	97.021973 
2367.974808  	97.042013 
2369.411685  	96.991125 
2370.848563  	97.015906 
2372.285441  	97.067205 
2373.722319  	97.034096 
2375.159197  	97.038188 
2376.596075  	97.035911 
2378.032953  	96.985414 
2379.469831  	97.027042 
2380.906709  	97.091737 
2382.343587  	97.114629 
2383.780465  	97.147773 
2385.217343  	97.167500 
2386.654220  	97.219276 
2388.091098  	97.290347 
2389.527976  	97.329095 
2390.964854  	97.399019 
2392.401732  	97.415195 
2393.838610  	97.327455 
2395.275488  	97.266925 
2396.712366  	97.258800 
2398.149244  	97.316828 
2399.586122  	97.378049 
2401.023000  	97.355224 
2402.459878  	97.389181 
2403.896755  	97.458559 
2405.333633  	97.461428 
2406.770511  	97.501636 
2408.207389  	97.540074 
2409.644267  	97.532757 
2411.081145  	97.526892 
2412.518023  	97.478002 
2413.954901  	97.433178 
2415.391779  	97.413440 
2416.828657  	97.405169 
2418.265535  	97.457857 
2419.702413  	97.456910 
2421.139290  	97.387258 
2422.576168  	97.375367 
2424.013046  	97.381968 
2425.449924  	97.411721 
2426.886802  	97.446392 
2428.323680  	97.412787 
2429.760558  	97.408561 
2431.197436  	97.426994 
2432.634314  	97.398293 
2434.071192  	97.375514 
2435.508070  	97.379140 
2436.944948  	97.462585 
2438.381825  	97.571393 
2439.818703  	97.554849 
2441.255581  	97.522352 
2442.692459  	97.586189 
2444.129337  	97.657050 
2445.566215  	97.650001 
2447.003093  	97.589134 
2448.439971  	97.594386 
2449.876849  	97.630780 
2451.313727  	97.612391 
2452.750605  	97.638174 
2454.187483  	97.692205 
2455.624360  	97.702732 
2457.061238  	97.715617 
2458.498116  	97.716518 
2459.934994  	97.722974 
2461.371872  	97.736160 
2462.808750  	97.702105 
2464.245628  	97.671280 
2465.682506  	97.647597 
2467.119384  	97.641357 
2468.556262  	97.675884 
2469.993140  	97.647012 
2471.430018  	97.614846 
2472.866895  	97.652378 
2474.303773  	97.662383 
2475.740651  	97.708657 
2477.177529  	97.769773 
2478.614407  	97.719843 
2480.051285  	97.691779 
2481.488163  	97.731085 
2482.925041  	97.744555 
2484.361919  	97.747081 
2485.798797  	97.731779 
2487.235675  	97.723506 
2488.672553  	97.726314 
2490.109430  	97.696805 
2491.546308  	97.721098 
2492.983186  	97.780465 
2494.420064  	97.767195 
2495.856942  	97.763547 
2497.293820  	97.802577 
2498.730698  	97.795359 
2500.167576  	97.752984 
2501.604454  	97.725232 
2503.041332  	97.727833 
2504.478210  	97.773737 
2505.915088  	97.825418 
2507.351965  	97.827523 
2508.788843  	97.812037 
2510.225721  	97.803060 
2511.662599  	97.773542 
2513.099477  	97.800889 
2514.536355  	97.878977 
2515.973233  	97.851276 
2517.410111  	97.785453 
2518.846989  	97.830821 
2520.283867  	97.913259 
2521.720745  	97.913118 
2523.157623  	97.824522 
2524.594500  	97.790407 
2526.031378  	97.891359 
2527.468256  	97.985876 
2528.905134  	98.015194 
2530.342012  	98.026812 
2531.778890  	98.006328 
2533.215768  	97.976649 
2534.652646  	97.963691 
2536.089524  	97.971407 
2537.526402  	97.954524 
2538.963280  	97.882499 
2540.400158  	97.897018 
2541.837035  	97.991191 
2543.273913  	98.024497 
2544.710791  	98.063479 
2546.147669  	98.077574 
2547.584547  	97.997523 
2549.021425  	97.938856 
2550.458303  	97.906749 
2551.895181  	97.918458 
2553.332059  	97.983971 
2554.768937  	97.963870 
2556.205815  	97.936228 
2557.642693  	97.994459 
2559.079570  	98.019513 
2560.516448  	98.018378 
2561.953326  	98.039125 
2563.390204  	98.064576 
2564.827082  	98.082683 
2566.263960  	98.073971 
2567.700838  	98.066704 
2569.137716  	98.031861 
2570.574594  	97.999865 
2572.011472  	98.066020 
2573.448350  	98.100202 
2574.885228  	98.081883 
2576.322105  	98.119742 
2577.758983  	98.113313 
2579.195861  	98.092297 
2580.632739  	98.100405 
2582.069617  	98.044194 
2583.506495  	98.035523 
2584.943373  	98.071917 
2586.380251  	98.047902 
2587.817129  	98.069235 
2589.254007  	98.089534 
2590.690885  	98.040791 
2592.127763  	98.032505 
2593.564641  	98.046047 
2595.001518  	98.048570 
2596.438396  	98.049050 
2597.875274  	98.033240 
2599.312152  	98.062772 
2600.749030  	98.125084 
2602.185908  	98.143276 
2603.622786  	98.112710 
2605.059664  	98.081105 
2606.496542  	98.108803 
2607.933420  	98.132116 
2609.370298  	98.115934 
2610.807176  	98.143148 
2612.244053  	98.147306 
2613.680931  	98.086799 
2615.117809  	98.060237 
2616.554687  	98.085149 
2617.991565  	98.134912 
2619.428443  	98.136197 
2620.865321  	98.088069 
2622.302199  	98.115630 
2623.739077  	98.153989 
2625.175955  	98.129344 
2626.612833  	98.121556 
2628.049711  	98.108403 
2629.486588  	98.089266 
2630.923466  	98.093788 
2632.360344  	98.086066 
2633.797222  	98.100681 
2635.234100  	98.114699 
2636.670978  	98.102853 
2638.107856  	98.128947 
2639.544734  	98.132349 
2640.981612  	98.104347 
2642.418490  	98.120444 
2643.855368  	98.110644 
2645.292246  	98.076916 
2646.729123  	98.092382 
2648.166001  	98.111450 
2649.602879  	98.107688 
2651.039757  	98.079743 
2652.476635  	98.023389 
2653.913513  	97.986869 
2655.350391  	97.999696 
2656.787269  	98.043713 
2658.224147  	98.067382 
2659.661025  	98.051083 
2661.097903  	98.032077 
2662.534781  	98.002564 
2663.971658  	97.970288 
2665.408536  	97.974869 
2666.845414  	97.982979 
2668.282292  	97.985003 
2669.719170  	98.003112 
2671.156048  	98.000160 
2672.592926  	97.969978 
2674.029804  	97.962854 
2675.466682  	97.997039 
2676.903560  	98.014191 
2678.340438  	97.969551 
2679.777316  	97.934727 
2681.214193  	97.951106 
2682.651071  	97.958840 
2684.087949  	97.930691 
2685.524827  	97.886123 
2686.961705  	97.869649 
2688.398583  	97.886829 
2689.835461  	97.872463 
2691.272339  	97.837982 
2692.709217  	97.839634 
2694.146095  	97.864279 
2695.582973  	97.885659 
2697.019851  	97.876791 
2698.456728  	97.832036 
2699.893606  	97.784106 
2701.330484  	97.760803 
2702.767362  	97.772748 
2704.204240  	97.773716 
2705.641118  	97.748004 
2707.077996  	97.754828 
2708.514874  	97.766792 
2709.951752  	97.753137 
2711.388630  	97.750271 
2712.825508  	97.738377 
2714.262386  	97.734948 
2715.699263  	97.762124 
2717.136141  	97.751550 
2718.573019  	97.713052 
2720.009897  	97.697644 
2721.446775  	97.689980 
2722.883653  	97.682961 
2724.320531  	97.683424 
2725.757409  	97.696128 
2727.194287  	97.687892 
2728.631165  	97.644645 
2730.068043  	97.640532 
2731.504921  	97.649037 
2732.941798  	97.595112 
2734.378676  	97.550609 
2735.815554  	97.554396 
2737.252432  	97.548911 
2738.689310  	97.514033 
2740.126188  	97.482429 
2741.563066  	97.488439 
2742.999944  	97.476890 
2744.436822  	97.430735 
2745.873700  	97.436125 
2747.310578  	97.446175 
2748.747456  	97.408112 
2750.184333  	97.412554 
2751.621211  	97.450860 
2753.058089  	97.445961 
2754.494967  	97.402617 
2755.931845  	97.365241 
2757.368723  	97.366820 
2758.805601  	97.358492 
2760.242479  	97.311715 
2761.679357  	97.282623 
2763.116235  	97.268554 
2764.553113  	97.263826 
2765.989991  	97.276739 
2767.426868  	97.257176 
2768.863746  	97.227098 
2770.300624  	97.235742 
2771.737502  	97.236676 
2773.174380  	97.195911 
2774.611258  	97.148919 
2776.048136  	97.135809 
2777.485014  	97.133915 
2778.921892  	97.107250 
2780.358770  	97.080375 
2781.795648  	97.062126 
2783.232526  	97.051772 
2784.669403  	97.055035 
2786.106281  	97.035460 
2787.543159  	97.009354 
2788.980037  	96.997512 
2790.416915  	96.958604 
2791.853793  	96.925069 
2793.290671  	96.919572 
2794.727549  	96.892961 
2796.164427  	96.857364 
2797.601305  	96.843688 
2799.038183  	96.849791 
2800.475061  	96.838459 
2801.911938  	96.777515 
2803.348816  	96.731397 
2804.785694  	96.722770 
2806.222572  	96.696186 
2807.659450  	96.658435 
2809.096328  	96.610847 
2810.533206  	96.561766 
2811.970084  	96.547389 
2813.406962  	96.539915 
2814.843840  	96.532180 
2816.280718  	96.513100 
2817.717596  	96.449043 
2819.154474  	96.412374 
2820.591351  	96.414113 
2822.028229  	96.369402 
2823.465107  	96.309867 
2824.901985  	96.276445 
2826.338863  	96.243008 
2827.775741  	96.203554 
2829.212619  	96.149961 
2830.649497  	96.102362 
2832.086375  	96.092032 
2833.523253  	96.083489 
2834.960131  	96.042358 
2836.397009  	95.993610 
2837.833886  	95.968007 
2839.270764  	95.945290 
2840.707642  	95.901220 
2842.144520  	95.856266 
2843.581398  	95.820884 
2845.018276  	95.789560 
2846.455154  	95.743440 
2847.892032  	95.671970 
2849.328910  	95.628981 
2850.765788  	95.606412 
2852.202666  	95.550623 
2853.639544  	95.518147 
2855.076421  	95.509924 
2856.513299  	95.450719 
2857.950177  	95.373031 
2859.387055  	95.322723 
2860.823933  	95.291128 
2862.260811  	95.254576 
2863.697689  	95.194026 
2865.134567  	95.131832 
2866.571445  	95.075380 
2868.008323  	95.034665 
2869.445201  	95.008504 
2870.882079  	94.938786 
2872.318956  	94.884199 
2873.755834  	94.888903 
2875.192712  	94.833309 
2876.629590  	94.747892 
2878.066468  	94.709736 
2879.503346  	94.653148 
2880.940224  	94.601205 
2882.377102  	94.555405 
2883.813980  	94.457848 
2885.250858  	94.373901 
2886.687736  	94.316901 
2888.124614  	94.255417 
2889.561491  	94.206904 
2890.998369  	94.143279 
2892.435247  	94.098327 
2893.872125  	94.098210 
2895.309003  	94.065625 
2896.745881  	93.998444 
2898.182759  	93.908093 
2899.619637  	93.800249 
2901.056515  	93.739951 
2902.493393  	93.703192 
2903.930271  	93.661528 
2905.367149  	93.634986 
2906.804026  	93.562570 
2908.240904  	93.451916 
2909.677782  	93.388259 
2911.114660  	93.344777 
2912.551538  	93.259307 
2913.988416  	93.159513 
2915.425294  	93.106155 
2916.862172  	93.060600 
2918.299050  	92.960376 
2919.735928  	92.861556 
2921.172806  	92.785133 
2922.609684  	92.703084 
2924.046561  	92.653519 
2925.483439  	92.613284 
2926.920317  	92.535818 
2928.357195  	92.431269 
2929.794073  	92.300042 
2931.230951  	92.179947 
2932.667829  	92.080458 
2934.104707  	91.977062 
2935.541585  	91.911450 
2936.978463  	91.847889 
2938.415341  	91.736232 
2939.852219  	91.649557 
2941.289096  	91.594523 
2942.725974  	91.518107 
2944.162852  	91.423850 
2945.599730  	91.328058 
2947.036608  	91.239889 
2948.473486  	91.132415 
2949.910364  	91.006869 
2951.347242  	90.891412 
2952.784120  	90.763474 
2954.220998  	90.673880 
2955.657876  	90.632559 
2957.094754  	90.517104 
2958.531631  	90.373082 
2959.968509  	90.288263 
2961.405387  	90.195464 
2962.842265  	90.087650 
2964.279143  	89.965646 
2965.716021  	89.808779 
2967.152899  	89.691582 
2968.589777  	89.626836 
2970.026655  	89.540977 
2971.463533  	89.397270 
2972.900411  	89.244756 
2974.337289  	89.178676 
2975.774166  	89.139862 
2977.211044  	89.008507 
2978.647922  	88.842976 
2980.084800  	88.728025 
2981.521678  	88.651040 
2982.958556  	88.568516 
2984.395434  	88.456211 
2985.832312  	88.332023 
2987.269190  	88.189523 
2988.706068  	88.028866 
2990.142946  	87.892779 
2991.579824  	87.769112 
2993.016701  	87.639165 
2994.453579  	87.520490 
2995.890457  	87.402643 
2997.327335  	87.247933 
2998.764213  	87.048230 
3000.201091  	86.891330 
3001.637969  	86.779428 
3003.074847  	86.585076 
3004.511725  	86.383478 
3005.948603  	86.282734 
3007.385481  	86.164666 
3008.822359  	85.971224 
3010.259236  	85.743831 
3011.696114  	85.544319 
3013.132992  	85.434238 
3014.569870  	85.321077 
3016.006748  	85.133991 
3017.443626  	84.913209 
3018.880504  	84.691786 
3020.317382  	84.523419 
3021.754260  	84.347592 
3023.191138  	84.127277 
3024.628016  	83.963447 
3026.064894  	83.767056 
3027.501771  	83.503598 
3028.938649  	83.307560 
3030.375527  	83.117256 
3031.812405  	82.916288 
3033.249283  	82.727514 
3034.686161  	82.457768 
3036.123039  	82.198369 
3037.559917  	81.995701 
3038.996795  	81.777292 
3040.433673  	81.583510 
3041.870551  	81.346146 
3043.307429  	81.073640 
3044.744306  	80.912101 
3046.181184  	80.768395 
3047.618062  	80.538488 
3049.054940  	80.266923 
3050.491818  	80.015468 
3051.928696  	79.812134 
3053.365574  	79.564250 
3054.802452  	79.282780 
3056.239330  	79.038269 
3057.676208  	78.744610 
3059.113086  	78.450991 
3060.549964  	78.247511 
3061.986842  	78.050448 
3063.423719  	77.795034 
3064.860597  	77.482597 
3066.297475  	77.211038 
3067.734353  	76.972556 
3069.171231  	76.649230 
3070.608109  	76.370534 
3072.044987  	76.150950 
3073.481865  	75.852039 
3074.918743  	75.566905 
3076.355621  	75.285723 
3077.792499  	74.976769 
3079.229377  	74.718534 
3080.666254  	74.431116 
3082.103132  	74.142016 
3083.540010  	73.873770 
3084.976888  	73.552576 
3086.413766  	73.283628 
3087.850644  	73.020089 
3089.287522  	72.695800 
3090.724400  	72.387059 
3092.161278  	72.026281 
3093.598156  	71.715406 
3095.035034  	71.492125 
3096.471912  	71.176493 
3097.908789  	70.880647 
3099.345667  	70.587117 
3100.782545  	70.210265 
3102.219423  	69.925884 
3103.656301  	69.633908 
3105.093179  	69.282556 
3106.530057  	68.981207 
3107.966935  	68.632324 
3109.403813  	68.311637 
3110.840691  	68.039489 
3112.277569  	67.717153 
3113.714447  	67.435662 
3115.151324  	67.140321 
3116.588202  	66.829405 
3118.025080  	66.507153 
3119.461958  	66.061409 
3120.898836  	65.725067 
3122.335714  	65.496901 
3123.772592  	65.168214 
3125.209470  	64.899941 
3126.646348  	64.617147 
3128.083226  	64.253387 
3129.520104  	63.915027 
3130.956982  	63.498114 
3132.393859  	63.170917 
3133.830737  	62.952278 
3135.267615  	62.625792 
3136.704493  	62.344534 
3138.141371  	62.017146 
3139.578249  	61.630571 
3141.015127  	61.390733 
3142.452005  	61.046907 
3143.888883  	60.675464 
3145.325761  	60.440263 
3146.762639  	60.107190 
3148.199517  	59.815974 
3149.636394  	59.550280 
3151.073272  	59.169138 
3152.510150  	58.872353 
3153.947028  	58.559714 
3155.383906  	58.234347 
3156.820784  	57.978907 
3158.257662  	57.630632 
3159.694540  	57.351344 
3161.131418  	57.105943 
3162.568296  	56.767729 
3164.005174  	56.521008 
3165.442052  	56.221306 
3166.878929  	55.890369 
3168.315807  	55.646002 
3169.752685  	55.351161 
3171.189563  	55.189557 
3172.626441  	54.997608 
3174.063319  	54.599205 
3175.500197  	54.357386 
3176.937075  	54.099977 
3178.373953  	53.753332 
3179.810831  	53.533615 
3181.247709  	53.233143 
3182.684587  	53.015984 
3184.121464  	52.910455 
3185.558342  	52.651710 
3186.995220  	52.407685 
3188.432098  	52.102314 
3189.868976  	51.829925 
3191.305854  	51.765917 
3192.742732  	51.543530 
3194.179610  	51.326426 
3195.616488  	51.197026 
3197.053366  	50.867772 
3198.490244  	50.644465 
3199.927122  	50.499923 
3201.363999  	50.309577 
3202.800877  	50.211293 
3204.237755  	49.982266 
3205.674633  	49.833801 
3207.111511  	49.780742 
3208.548389  	49.493089 
3209.985267  	49.362638 
3211.422145  	49.317064 
3212.859023  	49.117679 
3214.295901  	49.021144 
3215.732779  	48.820555 
3217.169657  	48.648926 
3218.606534  	48.630584 
3220.043412  	48.418558 
3221.480290  	48.286260 
3222.917168  	48.194412 
3224.354046  	47.996530 
3225.790924  	48.012672 
3227.227802  	47.954590 
3228.664680  	47.846001 
3230.101558  	47.841349 
3231.538436  	47.612393 
3232.975314  	47.521821 
3234.412192  	47.567062 
3235.849069  	47.406792 
3237.285947  	47.359408 
3238.722825  	47.271254 
3240.159703  	47.158105 
3241.596581  	47.238072 
3243.033459  	47.153856 
3244.470337  	47.102812 
3245.907215  	47.130054 
3247.344093  	46.989446 
3248.780971  	46.988824 
3250.217849  	46.961986 
3251.654727  	46.910882 
3253.091604  	47.032462 
3254.528482  	46.919361 
3255.965360  	46.796261 
3257.402238  	46.840355 
3258.839116  	46.796533 
3260.275994  	46.883587 
3261.712872  	46.898563 
3263.149750  	46.783263 
3264.586628  	46.794673 
3266.023506  	46.700091 
3267.460384  	46.717102 
3268.897262  	46.818288 
3270.334139  	46.688399 
3271.771017  	46.714869 
3273.207895  	46.724868 
3274.644773  	46.604082 
3276.081651  	46.732035 
3277.518529  	46.767414 
3278.955407  	46.729455 
3280.392285  	46.799099 
3281.829163  	46.750870 
3283.266041  	46.781982 
3284.702919  	46.802880 
3286.139797  	46.788843 
3287.576674  	46.926376 
3289.013552  	46.831932 
3290.450430  	46.704522 
3291.887308  	46.778629 
3293.324186  	46.745611 
3294.761064  	46.821090 
3296.197942  	46.896350 
3297.634820  	46.851077 
3299.071698  	46.969976 
3300.508576  	46.969588 
3301.945454  	46.934238 
3303.382332  	47.010733 
3304.819210  	46.932669 
3306.256087  	46.977715 
3307.692965  	47.030342 
3309.129843  	46.956142 
3310.566721  	47.091267 
3312.003599  	47.078604 
3313.440477  	46.976241 
3314.877355  	47.069889 
3316.314233  	47.034508 
3317.751111  	47.091847 
3319.187989  	47.205294 
3320.624867  	47.134388 
3322.061745  	47.184449 
3323.498622  	47.149635 
3324.935500  	47.081664 
3326.372378  	47.174925 
3327.809256  	47.084988 
3329.246134  	47.141823 
3330.683012  	47.317252 
3332.119890  	47.197768 
3333.556768  	47.197800 
3334.993646  	47.253973 
3336.430524  	47.241049 
3337.867402  	47.354343 
3339.304280  	47.333028 
3340.741157  	47.400596 
3342.178035  	47.540285 
3343.614913  	47.421446 
3345.051791  	47.482970 
3346.488669  	47.615112 
3347.925547  	47.611746 
3349.362425  	47.709674 
3350.799303  	47.635853 
3352.236181  	47.618686 
3353.673059  	47.836482 
3355.109937  	47.877933 
3356.546815  	47.969596 
3357.983692  	48.075530 
3359.420570  	48.061756 
3360.857448  	48.202560 
3362.294326  	48.228450 
3363.731204  	48.211297 
3365.168082  	48.316894 
3366.604960  	48.263672 
3368.041838  	48.325310 
3369.478716  	48.486668 
3370.915594  	48.558473 
3372.352472  	48.723517 
3373.789350  	48.765051 
3375.226227  	48.860976 
3376.663105  	49.135440 
3378.099983  	49.174530 
3379.536861  	49.265289 
3380.973739  	49.449797 
3382.410617  	49.472376 
3383.847495  	49.589687 
3385.284373  	49.685590 
3386.721251  	49.808650 
3388.158129  	50.058122 
3389.595007  	50.119171 
3391.031885  	50.237699 
3392.468762  	50.443175 
3393.905640  	50.533769 
3395.342518  	50.743706 
3396.779396  	50.877014 
3398.216274  	50.937872 
3399.653152  	51.126833 
3401.090030  	51.259511 
3402.526908  	51.521955 
3403.963786  	51.797715 
3405.400664  	51.878208 
3406.837542  	52.064114 
3408.274420  	52.227496 
3409.711297  	52.431764 
3411.148175  	52.741592 
3412.585053  	52.811803 
3414.021931  	52.986828 
3415.458809  	53.257928 
3416.895687  	53.319300 
3418.332565  	53.551838 
3419.769443  	53.790279 
3421.206321  	53.919456 
3422.643199  	54.178260 
3424.080077  	54.315063 
3425.516955  	54.542340 
3426.953832  	54.886176 
3428.390710  	55.019219 
3429.827588  	55.239917 
3431.264466  	55.465093 
3432.701344  	55.614929 
3434.138222  	55.917976 
3435.575100  	56.108621 
3437.011978  	56.283638 
3438.448856  	56.503850 
3439.885734  	56.600262 
3441.322612  	56.885927 
3442.759490  	57.215624 
3444.196367  	57.449876 
3445.633245  	57.729937 
3447.070123  	57.823697 
3448.507001  	58.010726 
3449.943879  	58.330181 
3451.380757  	58.467048 
3452.817635  	58.778532 
3454.254513  	59.075492 
3455.691391  	59.198958 
3457.128269  	59.521992 
3458.565147  	59.777287 
3460.002025  	60.033045 
3461.438902  	60.370165 
3462.875780  	60.425188 
3464.312658  	60.558033 
3465.749536  	60.799025 
3467.186414  	60.963658 
3468.623292  	61.297342 
3470.060170  	61.509773 
3471.497048  	61.690533 
3472.933926  	62.026115 
3474.370804  	62.165870 
3475.807682  	62.411068 
3477.244560  	62.753255 
3478.681437  	62.884739 
3480.118315  	63.118587 
3481.555193  	63.338231 
3482.992071  	63.571095 
3484.428949  	63.951066 
3485.865827  	64.082132 
3487.302705  	64.278254 
3488.739583  	64.687638 
3490.176461  	64.895062 
3491.613339  	65.104074 
3493.050217  	65.332449 
3494.487095  	65.521100 
3495.923972  	65.803223 
3497.360850  	65.981158 
3498.797728  	66.180293 
3500.234606  	66.481102 
3501.671484  	66.731523 
3503.108362  	67.004852 
3504.545240  	67.139686 
3505.982118  	67.295523 
3507.418996  	67.661845 
3508.855874  	67.940796 
3510.292752  	68.239240 
3511.729630  	68.503677 
3513.166507  	68.599983 
3514.603385  	68.871471 
3516.040263  	69.135843 
3517.477141  	69.317779 
3518.914019  	69.635682 
3520.350897  	69.860384 
3521.787775  	70.135749 
3523.224653  	70.471827 
3524.661531  	70.616733 
3526.098409  	70.866129 
3527.535287  	71.074913 
3528.972165  	71.198421 
3530.409043  	71.553708 
3531.845920  	71.786370 
3533.282798  	71.931758 
3534.719676  	72.172493 
3536.156554  	72.320778 
3537.593432  	72.620605 
3539.030310  	72.993003 
3540.467188  	73.234465 
3541.904066  	73.519069 
3543.340944  	73.695620 
3544.777822  	73.852789 
3546.214700  	74.119505 
3547.651578  	74.319290 
3549.088455  	74.677009 
3550.525333  	74.988951 
3551.962211  	75.087292 
3553.399089  	75.381015 
3554.835967  	75.696192 
3556.272845  	75.884605 
3557.709723  	76.125486 
3559.146601  	76.290330 
3560.583479  	76.516201 
3562.020357  	76.809749 
3563.457235  	76.929256 
3564.894113  	77.044112 
3566.330990  	77.223415 
3567.767868  	77.507170 
3569.204746  	77.905064 
3570.641624  	78.180316 
3572.078502  	78.442042 
3573.515380  	78.647353 
3574.952258  	78.790766 
3576.389136  	79.014974 
3577.826014  	79.139108 
3579.262892  	79.322606 
3580.699770  	79.721250 
3582.136648  	79.970055 
3583.573525  	80.148023 
3585.010403  	80.359201 
3586.447281  	80.489930 
3587.884159  	80.759591 
3589.321037  	81.049453 
3590.757915  	81.217284 
3592.194793  	81.439732 
3593.631671  	81.586005 
3595.068549  	81.764370 
3596.505427  	82.120580 
3597.942305  	82.400010 
3599.379183  	82.574059 
3600.816060  	82.755901 
3602.252938  	83.018731 
3603.689816  	83.224469 
3605.126694  	83.258978 
3606.563572  	83.386119 
3608.000450  	83.662370 
3609.437328  	83.945395 
3610.874206  	84.280280 
3612.311084  	84.501429 
3613.747962  	84.634263 
3615.184840  	84.823212 
3616.621718  	84.955102 
3618.058595  	85.145451 
3619.495473  	85.386693 
3620.932351  	85.570454 
3622.369229  	85.907018 
3623.806107  	86.192278 
3625.242985  	86.268709 
3626.679863  	86.322060 
3628.116741  	86.471037 
3629.553619  	86.845974 
3630.990497  	87.174911 
3632.427375  	87.303942 
3633.864253  	87.551746 
3635.301130  	87.766033 
3636.738008  	87.954073 
3638.174886  	88.216619 
3639.611764  	88.420668 
3641.048642  	88.657103 
3642.485520  	89.015945 
3643.922398  	89.195299 
3645.359276  	89.350940 
3646.796154  	89.542754 
3648.233032  	89.678917 
3649.669910  	90.086681 
3651.106788  	90.479049 
3652.543665  	90.528997 
3653.980543  	90.616005 
3655.417421  	90.819804 
3656.854299  	91.109630 
3658.291177  	91.405895 
3659.728055  	91.735893 
3661.164933  	92.103593 
3662.601811  	92.374526 
3664.038689  	92.666572 
3665.475567  	92.894706 
3666.912445  	93.049938 
3668.349323  	93.295660 
3669.786200  	93.601607 
3671.223078  	93.763543 
3672.659956  	93.911899 
3674.096834  	94.152061 
3675.533712  	94.400800 
3676.970590  	94.474078 
3678.407468  	94.607181 
3679.844346  	94.835791 
3681.281224  	95.024855 
3682.718102  	95.248319 
3684.154980  	95.466122 
3685.591858  	95.537500 
3687.028735  	95.623046 
3688.465613  	95.753361 
3689.902491  	95.742847 
3691.339369  	95.811089 
3692.776247  	95.958891 
3694.213125  	96.068905 
3695.650003  	96.189872 
3697.086881  	96.285241 
3698.523759  	96.384664 
3699.960637  	96.496073 
3701.397515  	96.480302 
3702.834393  	96.475363 
3704.271270  	96.567566 
3705.708148  	96.690587 
3707.145026  	96.859872 
3708.581904  	96.883231 
3710.018782  	96.847077 
3711.455660  	96.910522 
3712.892538  	96.892714 
3714.329416  	96.916069 
3715.766294  	97.024366 
3717.203172  	97.100513 
3718.640050  	97.160018 
3720.076928  	97.249346 
3721.513805  	97.339110 
3722.950683  	97.299027 
3724.387561  	97.285972 
3725.824439  	97.393414 
3727.261317  	97.390554 
3728.698195  	97.300277 
3730.135073  	97.427569 
3731.571951  	97.542128 
3733.008829  	97.461750 
3734.445707  	97.489260 
3735.882585  	97.525039 
3737.319463  	97.508532 
3738.756340  	97.649666 
3740.193218  	97.726658 
3741.630096  	97.775226 
3743.066974  	97.942450 
3744.503852  	98.069635 
3745.940730  	97.856630 
3747.377608  	97.808466 
3748.814486  	97.887173 
3750.251364  	97.882972 
3751.688242  	97.800106 
3753.125120  	97.817471 
3754.561998  	97.934706 
3755.998875  	98.044435 
3757.435753  	98.076950 
3758.872631  	98.040553 
3760.309509  	98.047986 
3761.746387  	98.102394 
3763.183265  	98.192693 
3764.620143  	98.265026 
3766.057021  	98.184522 
3767.493899  	98.173586 
3768.930777  	98.296067 
3770.367655  	98.274995 
3771.804533  	98.239356 
3773.241411  	98.356068 
3774.678288  	98.425182 
3776.115166  	98.361212 
3777.552044  	98.347360 
3778.988922  	98.391001 
3780.425800  	98.403950 
3781.862678  	98.415887 
3783.299556  	98.436867 
3784.736434  	98.313143 
3786.173312  	98.149990 
3787.610190  	98.207135 
3789.047068  	98.279475 
3790.483946  	98.313556 
3791.920823  	98.395217 
3793.357701  	98.435394 
3794.794579  	98.450661 
3796.231457  	98.475071 
3797.668335  	98.361733 
3799.105213  	98.330715 
3800.542091  	98.446273 
3801.978969  	98.351599 
3803.415847  	98.171084 
3804.852725  	98.271659 
3806.289603  	98.337438 
3807.726481  	98.192592 
3809.163358  	98.240867 
3810.600236  	98.440934 
3812.037114  	98.449440 
3813.473992  	98.383118 
3814.910870  	98.529415 
3816.347748  	98.546734 
3817.784626  	98.282804 
3819.221504  	98.319604 
3820.658382  	98.437916 
3822.095260  	98.254833 
3823.532138  	98.203963 
3824.969016  	98.371522 
3826.405893  	98.472997 
3827.842771  	98.451705 
3829.279649  	98.487078 
3830.716527  	98.496301 
3832.153405  	98.383916 
3833.590283  	98.362714 
3835.027161  	98.450492 
3836.464039  	98.525487 
3837.900917  	98.605039 
3839.337795  	98.502229 
3840.774673  	98.316157 
3842.211551  	98.313112 
3843.648428  	98.391602 
3845.085306  	98.467273 
3846.522184  	98.526742 
3847.959062  	98.535046 
3849.395940  	98.525849 
3850.832818  	98.562367 
3852.269696  	98.605715 
3853.706574  	98.438104 
3855.143452  	98.210398 
3856.580330  	98.277561 
3858.017208  	98.392634 
3859.454086  	98.474083 
3860.890963  	98.481275 
3862.327841  	98.447929 
3863.764719  	98.525780 
3865.201597  	98.567367 
3866.638475  	98.483227 
3868.075353  	98.588140 
3869.512231  	98.607995 
3870.949109  	98.234131 
3872.385987  	98.330092 
3873.822865  	98.602943 
3875.259743  	98.564272 
3876.696621  	98.494733 
3878.133498  	98.541646 
3879.570376  	98.478285 
3881.007254  	98.317086 
3882.444132  	98.321384 
3883.881010  	98.483961 
3885.317888  	98.563610 
3886.754766  	98.421890 
3888.191644  	98.438413 
3889.628522  	98.583194 
3891.065400  	98.611085 
3892.502278  	98.518955 
3893.939156  	98.523992 
3895.376033  	98.529728 
3896.812911  	98.472951 
3898.249789  	98.485999 
3899.686667  	98.532729 
3901.123545  	98.457836 
3902.560423  	98.472667 
3903.997301  	98.566199 
3905.434179  	98.505129 
3906.871057  	98.460074 
3908.307935  	98.466404 
3909.744813  	98.467895 
3911.181691  	98.520021 
3912.618568  	98.524111 
3914.055446  	98.495840 
3915.492324  	98.517362 
3916.929202  	98.514003 
3918.366080  	98.557759 
3919.802958  	98.585478 
3921.239836  	98.508392 
3922.676714  	98.550280 
3924.113592  	98.627216 
3925.550470  	98.560489 
3926.987348  	98.532651 
3928.424226  	98.553674 
3929.861103  	98.534964 
3931.297981  	98.503487 
3932.734859  	98.466526 
3934.171737  	98.480489 
3935.608615  	98.500858 
3937.045493  	98.497811 
3938.482371  	98.521302 
3939.919249  	98.536280 
3941.356127  	98.521329 
3942.793005  	98.509501 
3944.229883  	98.455710 
3945.666761  	98.490138 
3947.103638  	98.547597 
3948.540516  	98.500892 
3949.977394  	98.457906 
3951.414272  	98.496868 
3952.851150  	98.539100 
3954.288028  	98.580299 
3955.724906  	98.580402 
3957.161784  	98.523226 
3958.598662  	98.488681 
3960.035540  	98.462632 
3961.472418  	98.445739 
3962.909296  	98.481955 
3964.346173  	98.516643 
3965.783051  	98.505399 
3967.219929  	98.488987 
3968.656807  	98.514995 
3970.093685  	98.546333 
3971.530563  	98.547083 
3972.967441  	98.511785 
3974.404319  	98.440032 
3975.841197  	98.418362 
3977.278075  	98.427022 
3978.714953  	98.376148 
3980.151831  	98.368411 
3981.588708  	98.413025 
3983.025586  	98.439325 
3984.462464  	98.513356 
3985.899342  	98.562416 
3987.336220  	98.520933 
3988.773098  	98.496541 
3990.209976  	98.494154 
3991.646854  	98.502658 
3993.083732  	98.531595 
3994.520610  	98.527876 
3995.957488  	98.510080 
3997.394366  	98.505853 
3998.831244  	98.501961 
4000.268121  	98.476756 