##TITLE=No Description
##DATA TYPE=INFRARED SPECTRUM
##XUNITS=1/CM
##YUNITS=%T
399.452061  	30.957676 
400.888939  	30.677662 
402.325817  	31.508522 
403.762695  	30.960417 
405.199573  	29.635317 
406.636451  	30.822649 
408.073328  	30.464628 
409.510206  	30.515117 
410.947084  	31.205132 
412.383962  	30.840070 
413.820840  	31.167012 
415.257718  	30.198199 
416.694596  	29.802232 
418.131474  	31.729370 
419.568352  	30.493271 
421.005230  	30.200309 
422.442108  	30.637154 
423.878986  	29.393313 
425.315863  	30.354632 
426.752741  	30.786127 
428.189619  	29.976742 
429.626497  	30.553731 
431.063375  	30.304244 
432.500253  	30.285549 
433.937131  	30.747580 
435.374009  	29.987345 
436.810887  	30.548402 
438.247765  	30.809546 
439.684643  	30.340358 
441.121521  	31.411461 
442.558398  	31.115631 
443.995276  	30.450856 
445.432154  	30.963721 
446.869032  	30.242504 
448.305910  	30.160151 
449.742788  	30.454836 
451.179666  	29.984022 
452.616544  	30.515525 
454.053422  	30.622749 
455.490300  	30.310371 
456.927178  	30.674806 
458.364056  	30.411176 
459.800933  	30.651669 
461.237811  	30.927007 
462.674689  	30.754617 
464.111567  	31.135404 
465.548445  	30.931844 
466.985323  	30.783894 
468.422201  	31.043751 
469.859079  	30.370136 
471.295957  	30.425809 
472.732835  	31.092011 
474.169713  	30.818123 
475.606591  	30.972215 
477.043469  	31.144012 
478.480346  	31.023665 
479.917224  	30.959099 
481.354102  	30.630008 
482.790980  	31.060437 
484.227858  	31.645123 
485.664736  	31.328346 
487.101614  	31.193904 
488.538492  	30.930064 
489.975370  	30.600272 
491.412248  	30.870865 
492.849126  	31.109101 
494.286004  	31.417816 
495.722881  	31.534106 
497.159759  	31.283553 
498.596637  	31.369771 
500.033515  	31.300722 
501.470393  	31.117900 
502.907271  	31.219055 
504.344149  	31.166976 
505.781027  	31.436094 
507.217905  	31.599793 
508.654783  	31.291132 
510.091661  	31.569463 
511.528539  	31.840739 
512.965416  	31.611950 
514.402294  	31.575977 
515.839172  	31.580392 
517.276050  	31.671775 
518.712928  	31.769813 
520.149806  	31.779905 
521.586684  	32.052931 
523.023562  	32.033397 
524.460440  	31.889111 
525.897318  	32.132905 
527.334196  	32.134969 
528.771074  	32.210429 
530.207951  	32.493930 
531.644829  	32.431557 
533.081707  	32.354619 
534.518585  	32.315567 
535.955463  	32.412950 
537.392341  	32.803668 
538.829219  	32.870973 
540.266097  	32.870914 
541.702975  	33.023994 
543.139853  	32.976479 
544.576731  	33.063303 
546.013609  	33.075900 
547.450486  	32.910415 
548.887364  	33.044451 
550.324242  	33.152868 
551.761120  	33.292116 
553.197998  	33.569860 
554.634876  	33.580879 
556.071754  	33.605476 
557.508632  	33.679906 
558.945510  	33.701438 
560.382388  	33.882762 
561.819266  	33.870491 
563.256144  	33.847461 
564.693021  	34.123414 
566.129899  	34.215441 
567.566777  	34.203687 
569.003655  	34.229686 
570.440533  	34.193343 
571.877411  	34.307129 
573.314289  	34.392412 
574.751167  	34.469950 
576.188045  	34.725990 
577.624923  	34.819109 
579.061801  	34.864108 
580.498679  	35.069181 
581.935556  	35.205937 
583.372434  	35.251414 
584.809312  	35.253775 
586.246190  	35.355300 
587.683068  	35.562946 
589.119946  	35.629791 
590.556824  	35.691740 
591.993702  	35.818481 
593.430580  	35.898092 
594.867458  	36.025532 
596.304336  	36.149339 
597.741214  	36.341610 
599.178091  	36.580237 
600.614969  	36.625986 
602.051847  	36.714340 
603.488725  	36.896536 
604.925603  	36.990710 
606.362481  	37.150049 
607.799359  	37.264734 
609.236237  	37.331714 
610.673115  	37.530163 
612.109993  	37.690485 
613.546871  	37.842369 
614.983749  	37.968444 
616.420626  	38.025539 
617.857504  	38.234239 
619.294382  	38.453436 
620.731260  	38.522821 
622.168138  	38.629431 
623.605016  	38.716809 
625.041894  	38.816501 
626.478772  	38.966774 
627.915650  	39.042855 
629.352528  	39.103248 
630.789406  	39.195065 
632.226284  	39.259824 
633.663161  	39.415770 
635.100039  	39.567626 
636.536917  	39.665041 
637.973795  	39.820207 
639.410673  	39.968972 
640.847551  	40.121261 
642.284429  	40.255629 
643.721307  	40.387237 
645.158185  	40.624215 
646.595063  	40.782214 
648.031941  	40.910102 
649.468819  	41.100789 
650.905696  	41.220137 
652.342574  	41.334799 
653.779452  	41.510974 
655.216330  	41.683407 
656.653208  	41.900919 
658.090086  	42.058476 
659.526964  	42.158274 
660.963842  	42.336080 
662.400720  	42.499646 
663.837598  	42.666459 
665.274476  	42.850042 
666.711354  	42.970007 
668.148231  	43.170150 
669.585109  	43.407161 
671.021987  	43.522668 
672.458865  	43.649412 
673.895743  	43.837777 
675.332621  	44.035852 
676.769499  	44.241706 
678.206377  	44.444977 
679.643255  	44.646272 
681.080133  	44.795333 
682.517011  	44.948362 
683.953889  	45.187241 
685.390766  	45.384390 
686.827644  	45.542697 
688.264522  	45.755032 
689.701400  	45.955295 
691.138278  	46.179823 
692.575156  	46.402659 
694.012034  	46.587444 
695.448912  	46.785895 
696.885790  	46.969653 
698.322668  	47.148813 
699.759546  	47.376124 
701.196424  	47.593690 
702.633301  	47.802272 
704.070179  	48.027339 
705.507057  	48.231685 
706.943935  	48.444384 
708.380813  	48.661411 
709.817691  	48.852907 
711.254569  	49.035052 
712.691447  	49.244048 
714.128325  	49.499050 
715.565203  	49.770681 
717.002081  	49.973253 
718.438959  	50.130843 
719.875837  	50.302541 
721.312714  	50.552124 
722.749592  	50.842802 
724.186470  	51.057279 
725.623348  	51.258439 
727.060226  	51.475990 
728.497104  	51.657839 
729.933982  	51.903908 
731.370860  	52.191267 
732.807738  	52.411614 
734.244616  	52.627550 
735.681494  	52.856666 
737.118372  	53.070382 
738.555249  	53.229746 
739.992127  	53.415359 
741.429005  	53.714505 
742.865883  	53.987841 
744.302761  	54.204160 
745.739639  	54.480909 
747.176517  	54.706210 
748.613395  	54.896763 
750.050273  	55.198657 
751.487151  	55.466072 
752.924029  	55.621562 
754.360907  	55.786691 
755.797784  	56.013186 
757.234662  	56.303281 
758.671540  	56.590581 
760.108418  	56.821104 
761.545296  	57.046929 
762.982174  	57.295638 
764.419052  	57.566401 
765.855930  	57.842773 
767.292808  	58.087272 
768.729686  	58.299977 
770.166564  	58.530929 
771.603442  	58.801258 
773.040319  	59.012981 
774.477197  	59.185986 
775.914075  	59.466824 
777.350953  	59.753940 
778.787831  	59.990415 
780.224709  	60.307320 
781.661587  	60.608301 
783.098465  	60.827560 
784.535343  	61.060146 
785.972221  	61.282490 
787.409099  	61.516379 
788.845977  	61.779496 
790.282854  	62.033825 
791.719732  	62.302136 
793.156610  	62.532681 
794.593488  	62.761649 
796.030366  	63.076226 
797.467244  	63.388865 
798.904122  	63.692894 
800.341000  	63.968575 
801.777878  	64.152188 
803.214756  	64.390850 
804.651634  	64.684774 
806.088512  	64.926595 
807.525389  	65.186876 
808.962267  	65.434719 
810.399145  	65.651172 
811.836023  	65.912205 
813.272901  	66.183397 
814.709779  	66.456885 
816.146657  	66.721203 
817.583535  	66.969629 
819.020413  	67.251624 
820.457291  	67.512525 
821.894169  	67.797184 
823.331047  	68.165807 
824.767924  	68.449111 
826.204802  	68.633421 
827.641680  	68.852287 
829.078558  	69.128978 
830.515436  	69.444326 
831.952314  	69.718784 
833.389192  	69.963694 
834.826070  	70.237978 
836.262948  	70.477829 
837.699826  	70.728745 
839.136704  	71.009427 
840.573582  	71.241114 
842.010459  	71.482613 
843.447337  	71.729168 
844.884215  	71.968429 
846.321093  	72.263482 
847.757971  	72.540952 
849.194849  	72.797462 
850.631727  	73.065166 
852.068605  	73.301734 
853.505483  	73.573463 
854.942361  	73.836785 
856.379239  	74.044204 
857.816117  	74.314695 
859.252994  	74.598857 
860.689872  	74.861099 
862.126750  	75.146861 
863.563628  	75.375304 
865.000506  	75.609193 
866.437384  	75.889625 
867.874262  	76.102810 
869.311140  	76.320904 
870.748018  	76.607948 
872.184896  	76.885535 
873.621774  	77.127953 
875.058652  	77.357057 
876.495529  	77.623215 
877.932407  	77.892920 
879.369285  	78.111918 
880.806163  	78.331421 
882.243041  	78.552481 
883.679919  	78.791293 
885.116797  	79.070844 
886.553675  	79.321911 
887.990553  	79.555704 
889.427431  	79.774412 
890.864309  	79.957249 
892.301187  	80.169071 
893.738064  	80.395070 
895.174942  	80.625541 
896.611820  	80.858942 
898.048698  	81.036083 
899.485576  	81.237978 
900.922454  	81.473475 
902.359332  	81.643781 
903.796210  	81.801789 
905.233088  	81.960976 
906.669966  	82.120170 
908.106844  	82.311193 
909.543722  	82.472812 
910.980599  	82.648349 
912.417477  	82.853348 
913.854355  	82.998560 
915.291233  	83.142490 
916.728111  	83.295315 
918.164989  	83.427796 
919.601867  	83.600556 
921.038745  	83.778383 
922.475623  	83.950339 
923.912501  	84.123593 
925.349379  	84.255360 
926.786257  	84.410778 
928.223134  	84.576022 
929.660012  	84.698119 
931.096890  	84.851800 
932.533768  	85.013485 
933.970646  	85.148049 
935.407524  	85.297174 
936.844402  	85.435956 
938.281280  	85.556275 
939.718158  	85.674639 
941.155036  	85.798736 
942.591914  	85.901663 
944.028792  	85.958123 
945.465670  	86.076058 
946.902547  	86.253071 
948.339425  	86.383779 
949.776303  	86.528473 
951.213181  	86.671116 
952.650059  	86.771274 
954.086937  	86.902018 
955.523815  	87.002272 
956.960693  	87.069363 
958.397571  	87.189963 
959.834449  	87.317575 
961.271327  	87.426160 
962.708205  	87.488787 
964.145082  	87.530668 
965.581960  	87.656287 
967.018838  	87.775970 
968.455716  	87.820771 
969.892594  	87.862912 
971.329472  	87.903700 
972.766350  	87.971569 
974.203228  	88.056362 
975.640106  	88.109706 
977.076984  	88.172901 
978.513862  	88.227045 
979.950740  	88.273535 
981.387617  	88.340621 
982.824495  	88.382801 
984.261373  	88.437157 
985.698251  	88.505026 
987.135129  	88.539249 
988.572007  	88.570788 
990.008885  	88.569897 
991.445763  	88.556040 
992.882641  	88.576813 
994.319519  	88.606355 
995.756397  	88.693157 
997.193275  	88.774345 
998.630152  	88.783487 
1000.067030  	88.861558 
1001.503908  	88.984419 
1002.940786  	89.079877 
1004.377664  	89.181787 
1005.814542  	89.218983 
1007.251420  	89.246744 
1008.688298  	89.324325 
1010.125176  	89.356232 
1011.562054  	89.386949 
1012.998932  	89.417959 
1014.435810  	89.407657 
1015.872687  	89.436356 
1017.309565  	89.460468 
1018.746443  	89.443766 
1020.183321  	89.430931 
1021.620199  	89.415661 
1023.057077  	89.425028 
1024.493955  	89.396142 
1025.930833  	89.311236 
1027.367711  	89.296600 
1028.804589  	89.292092 
1030.241467  	89.235326 
1031.678345  	89.189365 
1033.115222  	89.145559 
1034.552100  	89.128947 
1035.988978  	89.106956 
1037.425856  	89.033274 
1038.862734  	89.001629 
1040.299612  	88.986304 
1041.736490  	88.956693 
1043.173368  	88.981510 
1044.610246  	89.000754 
1046.047124  	89.003763 
1047.484002  	89.037611 
1048.920880  	89.085530 
1050.357757  	89.192177 
1051.794635  	89.330296 
1053.231513  	89.427367 
1054.668391  	89.503662 
1056.105269  	89.564443 
1057.542147  	89.637412 
1058.979025  	89.719867 
1060.415903  	89.783045 
1061.852781  	89.864236 
1063.289659  	89.917013 
1064.726537  	89.926341 
1066.163415  	89.965153 
1067.600292  	90.020465 
1069.037170  	90.089620 
1070.474048  	90.160210 
1071.910926  	90.220455 
1073.347804  	90.291557 
1074.784682  	90.297046 
1076.221560  	90.281395 
1077.658438  	90.316781 
1079.095316  	90.310138 
1080.532194  	90.318723 
1081.969072  	90.363486 
1083.405950  	90.360012 
1084.842827  	90.399521 
1086.279705  	90.437909 
1087.716583  	90.396807 
1089.153461  	90.384332 
1090.590339  	90.386172 
1092.027217  	90.385278 
1093.464095  	90.396384 
1094.900973  	90.380805 
1096.337851  	90.385838 
1097.774729  	90.361368 
1099.211607  	90.297616 
1100.648485  	90.313874 
1102.085362  	90.329023 
1103.522240  	90.308733 
1104.959118  	90.302063 
1106.395996  	90.251816 
1107.832874  	90.245742 
1109.269752  	90.287558 
1110.706630  	90.244946 
1112.143508  	90.200961 
1113.580386  	90.205493 
1115.017264  	90.222192 
1116.454142  	90.269276 
1117.891020  	90.309017 
1119.327897  	90.352243 
1120.764775  	90.401959 
1122.201653  	90.423900 
1123.638531  	90.463684 
1125.075409  	90.503017 
1126.512287  	90.552926 
1127.949165  	90.638796 
1129.386043  	90.658490 
1130.822921  	90.661294 
1132.259799  	90.727542 
1133.696677  	90.781272 
1135.133555  	90.817875 
1136.570432  	90.833357 
1138.007310  	90.828339 
1139.444188  	90.846675 
1140.881066  	90.850340 
1142.317944  	90.860933 
1143.754822  	90.884171 
1145.191700  	90.863916 
1146.628578  	90.853846 
1148.065456  	90.843006 
1149.502334  	90.816631 
1150.939212  	90.835155 
1152.376090  	90.837838 
1153.812967  	90.826254 
1155.249845  	90.830468 
1156.686723  	90.782514 
1158.123601  	90.750633 
1159.560479  	90.759041 
1160.997357  	90.726859 
1162.434235  	90.701072 
1163.871113  	90.692175 
1165.307991  	90.686057 
1166.744869  	90.711679 
1168.181747  	90.719497 
1169.618625  	90.710363 
1171.055502  	90.714736 
1172.492380  	90.712746 
1173.929258  	90.714333 
1175.366136  	90.709591 
1176.803014  	90.715628 
1178.239892  	90.737011 
1179.676770  	90.702917 
1181.113648  	90.659246 
1182.550526  	90.669183 
1183.987404  	90.693958 
1185.424282  	90.714689 
1186.861160  	90.697289 
1188.298038  	90.657917 
1189.734915  	90.652103 
1191.171793  	90.649268 
1192.608671  	90.656509 
1194.045549  	90.663893 
1195.482427  	90.624487 
1196.919305  	90.601730 
1198.356183  	90.600783 
1199.793061  	90.579789 
1201.229939  	90.580215 
1202.666817  	90.585148 
1204.103695  	90.568242 
1205.540573  	90.555240 
1206.977450  	90.556055 
1208.414328  	90.569988 
1209.851206  	90.560117 
1211.288084  	90.545317 
1212.724962  	90.567308 
1214.161840  	90.563131 
1215.598718  	90.541835 
1217.035596  	90.544377 
1218.472474  	90.529443 
1219.909352  	90.523107 
1221.346230  	90.529268 
1222.783108  	90.512870 
1224.219985  	90.509582 
1225.656863  	90.511053 
1227.093741  	90.509534 
1228.530619  	90.517073 
1229.967497  	90.507044 
1231.404375  	90.508911 
1232.841253  	90.518284 
1234.278131  	90.505467 
1235.715009  	90.509506 
1237.151887  	90.499893 
1238.588765  	90.470370 
1240.025643  	90.481194 
1241.462520  	90.495706 
1242.899398  	90.495465 
1244.336276  	90.497796 
1245.773154  	90.488371 
1247.210032  	90.493315 
1248.646910  	90.508270 
1250.083788  	90.509280 
1251.520666  	90.506637 
1252.957544  	90.500702 
1254.394422  	90.509274 
1255.831300  	90.512621 
1257.268178  	90.491786 
1258.705055  	90.490791 
1260.141933  	90.488116 
1261.578811  	90.482734 
1263.015689  	90.513601 
1264.452567  	90.527556 
1265.889445  	90.520959 
1267.326323  	90.519343 
1268.763201  	90.498766 
1270.200079  	90.489119 
1271.636957  	90.495183 
1273.073835  	90.503057 
1274.510713  	90.517388 
1275.947590  	90.505940 
1277.384468  	90.503476 
1278.821346  	90.520330 
1280.258224  	90.501933 
1281.695102  	90.486536 
1283.131980  	90.471892 
1284.568858  	90.439925 
1286.005736  	90.443509 
1287.442614  	90.445371 
1288.879492  	90.428531 
1290.316370  	90.419537 
1291.753248  	90.393397 
1293.190125  	90.399054 
1294.627003  	90.426174 
1296.063881  	90.405448 
1297.500759  	90.396481 
1298.937637  	90.411147 
1300.374515  	90.409316 
1301.811393  	90.399043 
1303.248271  	90.377390 
1304.685149  	90.381778 
1306.122027  	90.389555 
1307.558905  	90.368375 
1308.995783  	90.359766 
1310.432660  	90.366004 
1311.869538  	90.354750 
1313.306416  	90.354142 
1314.743294  	90.354325 
1316.180172  	90.337082 
1317.617050  	90.321101 
1319.053928  	90.314510 
1320.490806  	90.325438 
1321.927684  	90.329139 
1323.364562  	90.340927 
1324.801440  	90.362908 
1326.238318  	90.373243 
1327.675195  	90.329612 
1329.112073  	90.329000 
1330.548951  	90.330458 
1331.985829  	90.354558 
1333.422707  	90.378356 
1334.859585  	90.351929 
1336.296463  	90.324339 
1337.733341  	90.280761 
1339.170219  	90.251668 
1340.607097  	90.299986 
1342.043975  	90.337518 
1343.480853  	90.358178 
1344.917730  	90.382749 
1346.354608  	90.379548 
1347.791486  	90.373170 
1349.228364  	90.363861 
1350.665242  	90.369366 
1352.102120  	90.389977 
1353.538998  	90.379346 
1354.975876  	90.385281 
1356.412754  	90.393775 
1357.849632  	90.378239 
1359.286510  	90.392093 
1360.723388  	90.385029 
1362.160265  	90.359087 
1363.597143  	90.371514 
1365.034021  	90.369751 
1366.470899  	90.362609 
1367.907777  	90.351369 
1369.344655  	90.315750 
1370.781533  	90.324424 
1372.218411  	90.327633 
1373.655289  	90.316646 
1375.092167  	90.312096 
1376.529045  	90.300394 
1377.965923  	90.291993 
1379.402800  	90.295568 
1380.839678  	90.279248 
1382.276556  	90.279312 
1383.713434  	90.271944 
1385.150312  	90.242037 
1386.587190  	90.254095 
1388.024068  	90.241831 
1389.460946  	90.218010 
1390.897824  	90.226775 
1392.334702  	90.222781 
1393.771580  	90.205501 
1395.208458  	90.216612 
1396.645335  	90.206484 
1398.082213  	90.201925 
1399.519091  	90.180777 
1400.955969  	90.176736 
1402.392847  	90.176598 
1403.829725  	90.146291 
1405.266603  	90.117097 
1406.703481  	90.123339 
1408.140359  	90.110878 
1409.577237  	90.100659 
1411.014115  	90.096920 
1412.450993  	90.073065 
1413.887871  	90.070104 
1415.324748  	90.044540 
1416.761626  	90.019177 
1418.198504  	90.042442 
1419.635382  	90.058354 
1421.072260  	90.037686 
1422.509138  	90.005865 
1423.946016  	89.999492 
1425.382894  	90.016337 
1426.819772  	90.011547 
1428.256650  	90.021119 
1429.693528  	90.029432 
1431.130406  	90.006057 
1432.567283  	89.993562 
1434.004161  	89.970018 
1435.441039  	89.957078 
1436.877917  	90.001372 
1438.314795  	90.016651 
1439.751673  	89.984996 
1441.188551  	89.985758 
1442.625429  	89.973589 
1444.062307  	89.965528 
1445.499185  	89.972726 
1446.936063  	89.973290 
1448.372941  	90.002246 
1449.809818  	89.982199 
1451.246696  	89.961094 
1452.683574  	89.963775 
1454.120452  	89.905425 
1455.557330  	89.914307 
1456.994208  	89.986251 
1458.431086  	89.938492 
1459.867964  	89.885259 
1461.304842  	89.863596 
1462.741720  	89.860002 
1464.178598  	89.895079 
1465.615476  	89.887920 
1467.052353  	89.867532 
1468.489231  	89.864429 
1469.926109  	89.852089 
1471.362987  	89.897829 
1472.799865  	89.944030 
1474.236743  	89.896472 
1475.673621  	89.867467 
1477.110499  	89.877435 
1478.547377  	89.890672 
1479.984255  	89.892118 
1481.421133  	89.886131 
1482.858011  	89.903463 
1484.294888  	89.875537 
1485.731766  	89.826905 
1487.168644  	89.801973 
1488.605522  	89.761118 
1490.042400  	89.727607 
1491.479278  	89.736657 
1492.916156  	89.702555 
1494.353034  	89.671458 
1495.789912  	89.639449 
1497.226790  	89.604938 
1498.663668  	89.598142 
1500.100546  	89.557136 
1501.537423  	89.505725 
1502.974301  	89.467929 
1504.411179  	89.440742 
1505.848057  	89.414722 
1507.284935  	89.312437 
1508.721813  	89.254110 
1510.158691  	89.231063 
1511.595569  	89.187210 
1513.032447  	89.128541 
1514.469325  	89.078124 
1515.906203  	89.016104 
1517.343081  	88.959100 
1518.779958  	88.940593 
1520.216836  	88.903713 
1521.653714  	88.873178 
1523.090592  	88.781190 
1524.527470  	88.694476 
1525.964348  	88.676273 
1527.401226  	88.607118 
1528.838104  	88.529496 
1530.274982  	88.482046 
1531.711860  	88.406031 
1533.148738  	88.363200 
1534.585616  	88.306524 
1536.022493  	88.203705 
1537.459371  	88.177107 
1538.896249  	88.133020 
1540.333127  	88.078596 
1541.770005  	88.110349 
1543.206883  	87.965461 
1544.643761  	87.847988 
1546.080639  	87.782233 
1547.517517  	87.606139 
1548.954395  	87.515622 
1550.391273  	87.405451 
1551.828151  	87.318727 
1553.265028  	87.260434 
1554.701906  	87.144186 
1556.138784  	87.027528 
1557.575662  	86.959698 
1559.012540  	86.824315 
1560.449418  	86.837661 
1561.886296  	86.672629 
1563.323174  	86.528001 
1564.760052  	86.417624 
1566.196930  	86.252550 
1567.633808  	86.109438 
1569.070686  	86.014505 
1570.507563  	85.847304 
1571.944441  	85.693221 
1573.381319  	85.536091 
1574.818197  	85.345915 
1576.255075  	85.167238 
1577.691953  	84.893327 
1579.128831  	84.676721 
1580.565709  	84.485610 
1582.002587  	84.234378 
1583.439465  	84.001068 
1584.876343  	83.701934 
1586.313221  	83.385175 
1587.750098  	83.099792 
1589.186976  	82.756950 
1590.623854  	82.426119 
1592.060732  	82.108389 
1593.497610  	81.723654 
1594.934488  	81.385063 
1596.371366  	81.042346 
1597.808244  	80.644270 
1599.245122  	80.291905 
1600.682000  	79.814895 
1602.118878  	79.304805 
1603.555756  	78.903156 
1604.992633  	78.386460 
1606.429511  	77.943358 
1607.866389  	77.471700 
1609.303267  	76.858277 
1610.740145  	76.410655 
1612.177023  	75.881276 
1613.613901  	75.313015 
1615.050779  	74.881398 
1616.487657  	74.272557 
1617.924535  	73.777539 
1619.361413  	73.303492 
1620.798291  	72.675533 
1622.235168  	72.276204 
1623.672046  	71.872001 
1625.108924  	71.382157 
1626.545802  	71.124941 
1627.982680  	70.804639 
1629.419558  	70.538740 
1630.856436  	70.333804 
1632.293314  	69.984101 
1633.730192  	69.828666 
1635.167070  	69.851997 
1636.603948  	69.902818 
1638.040826  	70.030085 
1639.477703  	69.985660 
1640.914581  	70.043679 
1642.351459  	70.226524 
1643.788337  	70.289397 
1645.225215  	70.519636 
1646.662093  	70.949281 
1648.098971  	71.263258 
1649.535849  	71.535328 
1650.972727  	71.671745 
1652.409605  	71.906347 
1653.846483  	73.114983 
1655.283361  	73.339438 
1656.720239  	73.441560 
1658.157116  	73.812681 
1659.593994  	74.145396 
1661.030872  	74.591149 
1662.467750  	75.124276 
1663.904628  	75.626333 
1665.341506  	76.100245 
1666.778384  	76.462373 
1668.215262  	76.888545 
1669.652140  	77.526083 
1671.089018  	78.008921 
1672.525896  	78.413616 
1673.962774  	78.837348 
1675.399651  	79.357941 
1676.836529  	80.014800 
1678.273407  	80.353393 
1679.710285  	80.749438 
1681.147163  	81.268906 
1682.584041  	81.692423 
1684.020919  	82.252398 
1685.457797  	82.955375 
1686.894675  	83.189219 
1688.331553  	83.573455 
1689.768431  	84.074338 
1691.205309  	84.500606 
1692.642186  	84.930005 
1694.079064  	85.240688 
1695.515942  	85.644886 
1696.952820  	86.122118 
1698.389698  	86.368773 
1699.826576  	86.820494 
1701.263454  	87.554936 
1702.700332  	87.417916 
1704.137210  	87.685053 
1705.574088  	88.070635 
1707.010966  	88.374104 
1708.447844  	88.694373 
1709.884721  	88.993349 
1711.321599  	89.299493 
1712.758477  	89.594686 
1714.195355  	89.821597 
1715.632233  	90.168446 
1717.069111  	90.498621 
1718.505989  	90.700455 
1719.942867  	91.039939 
1721.379745  	91.295894 
1722.816623  	91.539454 
1724.253501  	91.812761 
1725.690379  	92.049532 
1727.127256  	92.335505 
1728.564134  	92.485237 
1730.001012  	92.575781 
1731.437890  	92.761566 
1732.874768  	92.910251 
1734.311646  	93.033075 
1735.748524  	93.213074 
1737.185402  	93.270532 
1738.622280  	93.407134 
1740.059158  	93.581575 
1741.496036  	93.642790 
1742.932914  	93.777690 
1744.369791  	93.896212 
1745.806669  	93.975910 
1747.243547  	94.095046 
1748.680425  	94.210098 
1750.117303  	94.348949 
1751.554181  	94.472248 
1752.991059  	94.534760 
1754.427937  	94.678162 
1755.864815  	94.769381 
1757.301693  	94.798689 
1758.738571  	94.899769 
1760.175449  	94.980201 
1761.612326  	95.031240 
1763.049204  	95.108066 
1764.486082  	95.132221 
1765.922960  	95.194669 
1767.359838  	95.234695 
1768.796716  	95.268546 
1770.233594  	95.388399 
1771.670472  	95.475591 
1773.107350  	95.534909 
1774.544228  	95.573711 
1775.981106  	95.564411 
1777.417984  	95.627767 
1778.854861  	95.665169 
1780.291739  	95.693334 
1781.728617  	95.785893 
1783.165495  	95.820999 
1784.602373  	95.840104 
1786.039251  	95.920246 
1787.476129  	95.954370 
1788.913007  	95.980364 
1790.349885  	96.018709 
1791.786763  	96.021740 
1793.223641  	96.156908 
1794.660519  	96.156498 
1796.097396  	96.130309 
1797.534274  	96.203275 
1798.971152  	96.155736 
1800.408030  	96.156600 
1801.844908  	96.229059 
1803.281786  	96.225115 
1804.718664  	96.309706 
1806.155542  	96.315683 
1807.592420  	96.274259 
1809.029298  	96.334829 
1810.466176  	96.313368 
1811.903054  	96.310183 
1813.339931  	96.404948 
1814.776809  	96.417297 
1816.213687  	96.436771 
1817.650565  	96.440349 
1819.087443  	96.458286 
1820.524321  	96.507354 
1821.961199  	96.488093 
1823.398077  	96.494592 
1824.834955  	96.542346 
1826.271833  	96.538788 
1827.708711  	96.582808 
1829.145589  	96.600845 
1830.582466  	96.594002 
1832.019344  	96.677098 
1833.456222  	96.662492 
1834.893100  	96.609751 
1836.329978  	96.659674 
1837.766856  	96.646227 
1839.203734  	96.705592 
1840.640612  	96.776287 
1842.077490  	96.721081 
1843.514368  	96.725446 
1844.951246  	96.752081 
1846.388124  	96.723222 
1847.825001  	96.751092 
1849.261879  	96.767405 
1850.698757  	96.808666 
1852.135635  	96.821044 
1853.572513  	96.731931 
1855.009391  	96.799036 
1856.446269  	96.838636 
1857.883147  	96.775470 
1859.320025  	96.821482 
1860.756903  	96.819078 
1862.193781  	96.807469 
1863.630659  	96.811504 
1865.067536  	96.765834 
1866.504414  	96.844124 
1867.941292  	96.884372 
1869.378170  	96.862896 
1870.815048  	96.956826 
1872.251926  	96.886528 
1873.688804  	96.793796 
1875.125682  	96.809459 
1876.562560  	96.853358 
1877.999438  	96.898510 
1879.436316  	96.870786 
1880.873194  	96.853782 
1882.310072  	96.918681 
1883.746949  	96.871344 
1885.183827  	96.835581 
1886.620705  	96.853247 
1888.057583  	96.845796 
1889.494461  	96.889588 
1890.931339  	96.872602 
1892.368217  	96.818189 
1893.805095  	96.885520 
1895.241973  	96.880193 
1896.678851  	96.839126 
1898.115729  	96.864529 
1899.552607  	96.790219 
1900.989484  	96.797543 
1902.426362  	96.817404 
1903.863240  	96.807487 
1905.300118  	96.850376 
1906.736996  	96.869801 
1908.173874  	96.722870 
1909.610752  	96.763240 
1911.047630  	96.698811 
1912.484508  	96.717698 
1913.921386  	96.861507 
1915.358264  	96.799568 
1916.795142  	96.831209 
1918.232019  	96.894156 
1919.668897  	96.926251 
1921.105775  	96.992980 
1922.542653  	96.860085 
1923.979531  	96.715502 
1925.416409  	96.666195 
1926.853287  	96.619557 
1928.290165  	96.652513 
1929.727043  	96.637863 
1931.163921  	96.622344 
1932.600799  	96.757407 
1934.037677  	96.753612 
1935.474554  	96.661463 
1936.911432  	96.645663 
1938.348310  	96.664776 
1939.785188  	96.788301 
1941.222066  	96.760754 
1942.658944  	96.569355 
1944.095822  	96.629565 
1945.532700  	96.684921 
1946.969578  	96.656648 
1948.406456  	96.655212 
1949.843334  	96.516121 
1951.280212  	96.394233 
1952.717089  	96.479713 
1954.153967  	96.394086 
1955.590845  	96.424223 
1957.027723  	96.431447 
1958.464601  	96.527192 
1959.901479  	96.698312 
1961.338357  	96.459996 
1962.775235  	96.424257 
1964.212113  	96.525845 
1965.648991  	96.392243 
1967.085869  	96.614141 
1968.522747  	96.754605 
1969.959624  	96.735840 
1971.396502  	96.756787 
1972.833380  	96.583240 
1974.270258  	96.601035 
1975.707136  	96.740766 
1977.144014  	96.561076 
1978.580892  	96.445750 
1980.017770  	96.353326 
1981.454648  	96.307553 
1982.891526  	96.448012 
1984.328404  	96.380357 
1985.765282  	96.268172 
1987.202159  	96.371062 
1988.639037  	96.349830 
1990.075915  	96.299461 
1991.512793  	96.187972 
1992.949671  	96.413322 
1994.386549  	96.853816 
1995.823427  	96.629493 
1997.260305  	96.109383 
1998.697183  	96.027838 
2000.134061  	95.986240 
2001.570939  	95.947524 
2003.007817  	95.912361 
2004.444694  	96.066801 
2005.881572  	96.380450 
2007.318450  	96.236176 
2008.755328  	96.357518 
2010.192206  	96.624424 
2011.629084  	96.205579 
2013.065962  	96.011774 
2014.502840  	96.177146 
2015.939718  	96.388934 
2017.376596  	96.651205 
2018.813474  	96.053715 
2020.250352  	95.461274 
2021.687229  	95.688517 
2023.124107  	95.704306 
2024.560985  	95.784605 
2025.997863  	96.202549 
2027.434741  	96.292589 
2028.871619  	96.254431 
2030.308497  	96.075354 
2031.745375  	96.043635 
2033.182253  	96.294584 
2034.619131  	96.194410 
2036.056009  	96.045258 
2037.492887  	95.886201 
2038.929764  	95.693772 
2040.366642  	95.907302 
2041.803520  	95.987812 
2043.240398  	95.889377 
2044.677276  	95.954348 
2046.114154  	95.716144 
2047.551032  	95.519340 
2048.987910  	95.715076 
2050.424788  	95.887310 
2051.861666  	95.931255 
2053.298544  	95.649067 
2054.735422  	95.314027 
2056.172299  	95.508031 
2057.609177  	95.791688 
2059.046055  	95.745649 
2060.482933  	95.653088 
2061.919811  	95.724617 
2063.356689  	95.746023 
2064.793567  	95.540465 
2066.230445  	95.518813 
2067.667323  	95.650111 
2069.104201  	95.501929 
2070.541079  	95.410045 
2071.977957  	95.431914 
2073.414834  	95.341780 
2074.851712  	95.446402 
2076.288590  	95.589102 
2077.725468  	95.532844 
2079.162346  	95.458288 
2080.599224  	95.327423 
2082.036102  	95.236591 
2083.472980  	95.204684 
2084.909858  	95.126293 
2086.346736  	95.184862 
2087.783614  	95.244467 
2089.220492  	95.218886 
2090.657369  	95.311825 
2092.094247  	95.324663 
2093.531125  	95.276356 
2094.968003  	95.296197 
2096.404881  	95.201250 
2097.841759  	95.134776 
2099.278637  	95.115460 
2100.715515  	95.054328 
2102.152393  	95.130128 
2103.589271  	95.106601 
2105.026149  	94.907038 
2106.463027  	94.887375 
2107.899904  	94.998230 
2109.336782  	95.080095 
2110.773660  	95.067495 
2112.210538  	94.955689 
2113.647416  	94.986277 
2115.084294  	95.138260 
2116.521172  	95.118511 
2117.958050  	94.907450 
2119.394928  	94.785861 
2120.831806  	94.903762 
2122.268684  	95.009247 
2123.705562  	94.975123 
2125.142440  	94.932590 
2126.579317  	94.865601 
2128.016195  	94.852076 
2129.453073  	94.908672 
2130.889951  	94.966719 
2132.326829  	95.090813 
2133.763707  	95.050958 
2135.200585  	95.003675 
2136.637463  	95.260654 
2138.074341  	95.201257 
2139.511219  	94.969905 
2140.948097  	95.105450 
2142.384975  	95.131782 
2143.821852  	95.073594 
2145.258730  	95.094133 
2146.695608  	95.054448 
2148.132486  	95.202038 
2149.569364  	95.133600 
2151.006242  	94.862331 
2152.443120  	94.970644 
2153.879998  	95.113425 
2155.316876  	95.248889 
2156.753754  	95.121470 
2158.190632  	94.485451 
2159.627510  	94.757887 
2161.064387  	95.462983 
2162.501265  	95.396026 
2163.938143  	95.324814 
2165.375021  	95.269176 
2166.811899  	95.338023 
2168.248777  	95.518043 
2169.685655  	95.205966 
2171.122533  	95.068447 
2172.559411  	95.484913 
2173.996289  	95.705790 
2175.433167  	95.576678 
2176.870045  	95.302726 
2178.306922  	95.240716 
2179.743800  	95.468056 
2181.180678  	95.581172 
2182.617556  	95.642945 
2184.054434  	95.791912 
2185.491312  	95.918785 
2186.928190  	95.891635 
2188.365068  	95.776292 
2189.801946  	95.970894 
2191.238824  	96.006066 
2192.675702  	95.592512 
2194.112580  	95.544489 
2195.549457  	95.712073 
2196.986335  	95.770686 
2198.423213  	96.029938 
2199.860091  	96.097194 
2201.296969  	96.021675 
2202.733847  	95.996337 
2204.170725  	95.677455 
2205.607603  	95.586890 
2207.044481  	95.859416 
2208.481359  	95.927320 
2209.918237  	95.982119 
2211.355115  	95.992607 
2212.791992  	95.879187 
2214.228870  	95.930734 
2215.665748  	96.006669 
2217.102626  	96.105415 
2218.539504  	96.228307 
2219.976382  	96.146987 
2221.413260  	96.033306 
2222.850138  	95.999101 
2224.287016  	95.998095 
2225.723894  	96.060364 
2227.160772  	96.170446 
2228.597650  	96.298621 
2230.034527  	96.289651 
2231.471405  	96.288096 
2232.908283  	96.387829 
2234.345161  	96.309071 
2235.782039  	96.416779 
2237.218917  	96.714677 
2238.655795  	96.581385 
2240.092673  	96.446389 
2241.529551  	96.520818 
2242.966429  	96.427175 
2244.403307  	96.425557 
2245.840185  	96.490591 
2247.277062  	96.484365 
2248.713940  	96.564488 
2250.150818  	96.571491 
2251.587696  	96.641328 
2253.024574  	96.760569 
2254.461452  	96.700239 
2255.898330  	96.758574 
2257.335208  	96.788328 
2258.772086  	96.675201 
2260.208964  	96.766556 
2261.645842  	96.784453 
2263.082720  	96.711483 
2264.519597  	96.808757 
2265.956475  	96.793795 
2267.393353  	96.765115 
2268.830231  	96.826212 
2270.267109  	96.778148 
2271.703987  	96.849621 
2273.140865  	96.992589 
2274.577743  	96.974835 
2276.014621  	96.989910 
2277.451499  	97.026834 
2278.888377  	96.958082 
2280.325255  	96.891709 
2281.762132  	96.889744 
2283.199010  	96.876995 
2284.635888  	96.801482 
2286.072766  	96.772906 
2287.509644  	96.825131 
2288.946522  	96.842516 
2290.383400  	96.820398 
2291.820278  	96.785240 
2293.257156  	96.785423 
2294.694034  	96.846364 
2296.130912  	96.858080 
2297.567790  	96.829928 
2299.004667  	96.763866 
2300.441545  	96.745562 
2301.878423  	96.735859 
2303.315301  	96.692056 
2304.752179  	96.601803 
2306.189057  	96.630852 
2307.625935  	96.685084 
2309.062813  	96.663201 
2310.499691  	96.623727 
2311.936569  	96.603101 
2313.373447  	96.662066 
2314.810325  	96.728681 
2316.247202  	96.720115 
2317.684080  	96.718112 
2319.120958  	96.689243 
2320.557836  	96.682731 
2321.994714  	96.755759 
2323.431592  	96.737624 
2324.868470  	96.694517 
2326.305348  	96.732300 
2327.742226  	96.749758 
2329.179104  	96.750589 
2330.615982  	96.734035 
2332.052860  	96.720588 
2333.489737  	96.764959 
2334.926615  	96.771102 
2336.363493  	96.773914 
2337.800371  	96.830307 
2339.237249  	96.882287 
2340.674127  	96.942261 
2342.111005  	96.940260 
2343.547883  	96.907360 
2344.984761  	96.950399 
2346.421639  	96.943822 
2347.858517  	96.911768 
2349.295395  	96.936823 
2350.732273  	96.982524 
2352.169150  	97.101210 
2353.606028  	97.202603 
2355.042906  	97.165738 
2356.479784  	97.180650 
2357.916662  	97.178704 
2359.353540  	97.107578 
2360.790418  	97.158015 
2362.227296  	97.261730 
2363.664174  	97.394766 
2365.101052  	97.454983 
2366.537930  	97.382135 
2367.974808  	97.426111 
2369.411685  	97.495559 
2370.848563  	97.458043 
2372.285441  	97.408198 
2373.722319  	97.349941 
2375.159197  	97.384457 
2376.596075  	97.476239 
2378.032953  	97.489697 
2379.469831  	97.491595 
2380.906709  	97.485361 
2382.343587  	97.500784 
2383.780465  	97.578990 
2385.217343  	97.616357 
2386.654220  	97.653482 
2388.091098  	97.705415 
2389.527976  	97.676252 
2390.964854  	97.652072 
2392.401732  	97.660291 
2393.838610  	97.661275 
2395.275488  	97.710542 
2396.712366  	97.750635 
2398.149244  	97.761482 
2399.586122  	97.761305 
2401.023000  	97.732919 
2402.459878  	97.755024 
2403.896755  	97.741847 
2405.333633  	97.629563 
2406.770511  	97.601071 
2408.207389  	97.661309 
2409.644267  	97.715822 
2411.081145  	97.721349 
2412.518023  	97.679520 
2413.954901  	97.734653 
2415.391779  	97.796794 
2416.828657  	97.748719 
2418.265535  	97.766510 
2419.702413  	97.797204 
2421.139290  	97.756331 
2422.576168  	97.749883 
2424.013046  	97.752302 
2425.449924  	97.824665 
2426.886802  	97.928173 
2428.323680  	97.863557 
2429.760558  	97.784549 
2431.197436  	97.808283 
2432.634314  	97.842273 
2434.071192  	97.916409 
2435.508070  	97.951878 
2436.944948  	97.908625 
2438.381825  	97.917354 
2439.818703  	97.926762 
2441.255581  	97.874245 
2442.692459  	97.870679 
2444.129337  	97.938370 
2445.566215  	97.961854 
2447.003093  	97.931817 
2448.439971  	97.936097 
2449.876849  	97.940039 
2451.313727  	97.960540 
2452.750605  	98.049938 
2454.187483  	98.075109 
2455.624360  	98.047731 
2457.061238  	98.043876 
2458.498116  	97.990504 
2459.934994  	97.989978 
2461.371872  	98.063398 
2462.808750  	98.082255 
2464.245628  	98.125578 
2465.682506  	98.141634 
2467.119384  	98.041367 
2468.556262  	97.987010 
2469.993140  	98.027120 
2471.430018  	98.107856 
2472.866895  	98.140599 
2474.303773  	98.053644 
2475.740651  	98.014819 
2477.177529  	98.058433 
2478.614407  	98.061973 
2480.051285  	98.075501 
2481.488163  	98.090076 
2482.925041  	98.092348 
2484.361919  	98.139182 
2485.798797  	98.181107 
2487.235675  	98.209027 
2488.672553  	98.222197 
2490.109430  	98.219165 
2491.546308  	98.241417 
2492.983186  	98.215806 
2494.420064  	98.160581 
2495.856942  	98.159476 
2497.293820  	98.146684 
2498.730698  	98.134913 
2500.167576  	98.160244 
2501.604454  	98.183193 
2503.041332  	98.200299 
2504.478210  	98.189971 
2505.915088  	98.222156 
2507.351965  	98.323673 
2508.788843  	98.346542 
2510.225721  	98.303642 
2511.662599  	98.267640 
2513.099477  	98.236275 
2514.536355  	98.237888 
2515.973233  	98.218609 
2517.410111  	98.197868 
2518.846989  	98.244102 
2520.283867  	98.286899 
2521.720745  	98.313438 
2523.157623  	98.296509 
2524.594500  	98.251181 
2526.031378  	98.312201 
2527.468256  	98.359687 
2528.905134  	98.300336 
2530.342012  	98.275575 
2531.778890  	98.281226 
2533.215768  	98.314030 
2534.652646  	98.368000 
2536.089524  	98.358679 
2537.526402  	98.362865 
2538.963280  	98.371562 
2540.400158  	98.340600 
2541.837035  	98.387907 
2543.273913  	98.448924 
2544.710791  	98.428578 
2546.147669  	98.410710 
2547.584547  	98.436876 
2549.021425  	98.496399 
2550.458303  	98.507273 
2551.895181  	98.443172 
2553.332059  	98.431521 
2554.768937  	98.482088 
2556.205815  	98.520427 
2557.642693  	98.535159 
2559.079570  	98.535770 
2560.516448  	98.530041 
2561.953326  	98.486052 
2563.390204  	98.451743 
2564.827082  	98.471488 
2566.263960  	98.477198 
2567.700838  	98.501133 
2569.137716  	98.518328 
2570.574594  	98.461609 
2572.011472  	98.449972 
2573.448350  	98.452346 
2574.885228  	98.414504 
2576.322105  	98.459316 
2577.758983  	98.509882 
2579.195861  	98.497056 
2580.632739  	98.503102 
2582.069617  	98.530301 
2583.506495  	98.589741 
2584.943373  	98.597145 
2586.380251  	98.525918 
2587.817129  	98.549767 
2589.254007  	98.609671 
2590.690885  	98.610349 
2592.127763  	98.616695 
2593.564641  	98.588253 
2595.001518  	98.591495 
2596.438396  	98.665735 
2597.875274  	98.656502 
2599.312152  	98.606246 
2600.749030  	98.612499 
2602.185908  	98.650205 
2603.622786  	98.682916 
2605.059664  	98.642144 
2606.496542  	98.611567 
2607.933420  	98.656286 
2609.370298  	98.638739 
2610.807176  	98.607352 
2612.244053  	98.655535 
2613.680931  	98.667116 
2615.117809  	98.622743 
2616.554687  	98.611511 
2617.991565  	98.655185 
2619.428443  	98.693942 
2620.865321  	98.660731 
2622.302199  	98.617514 
2623.739077  	98.623298 
2625.175955  	98.627395 
2626.612833  	98.614649 
2628.049711  	98.616922 
2629.486588  	98.633488 
2630.923466  	98.615268 
2632.360344  	98.568753 
2633.797222  	98.571646 
2635.234100  	98.581637 
2636.670978  	98.541748 
2638.107856  	98.525496 
2639.544734  	98.547176 
2640.981612  	98.560437 
2642.418490  	98.554242 
2643.855368  	98.532370 
2645.292246  	98.528635 
2646.729123  	98.532702 
2648.166001  	98.518646 
2649.602879  	98.514730 
2651.039757  	98.495399 
2652.476635  	98.446456 
2653.913513  	98.428326 
2655.350391  	98.437529 
2656.787269  	98.434189 
2658.224147  	98.430533 
2659.661025  	98.437260 
2661.097903  	98.417831 
2662.534781  	98.370893 
2663.971658  	98.374386 
2665.408536  	98.416160 
2666.845414  	98.412974 
2668.282292  	98.393619 
2669.719170  	98.378506 
2671.156048  	98.344742 
2672.592926  	98.328810 
2674.029804  	98.326534 
2675.466682  	98.319145 
2676.903560  	98.328046 
2678.340438  	98.344680 
2679.777316  	98.360060 
2681.214193  	98.352102 
2682.651071  	98.320519 
2684.087949  	98.314094 
2685.524827  	98.304001 
2686.961705  	98.270767 
2688.398583  	98.251934 
2689.835461  	98.225796 
2691.272339  	98.207945 
2692.709217  	98.222167 
2694.146095  	98.220849 
2695.582973  	98.214109 
2697.019851  	98.222401 
2698.456728  	98.227025 
2699.893606  	98.231075 
2701.330484  	98.231062 
2702.767362  	98.229630 
2704.204240  	98.203052 
2705.641118  	98.138417 
2707.077996  	98.115163 
2708.514874  	98.140447 
2709.951752  	98.151841 
2711.388630  	98.149138 
2712.825508  	98.135296 
2714.262386  	98.141345 
2715.699263  	98.164544 
2717.136141  	98.138324 
2718.573019  	98.112891 
2720.009897  	98.120070 
2721.446775  	98.095297 
2722.883653  	98.074002 
2724.320531  	98.076884 
2725.757409  	98.051142 
2727.194287  	98.017797 
2728.631165  	98.004491 
2730.068043  	97.994649 
2731.504921  	97.984058 
2732.941798  	97.980659 
2734.378676  	97.976785 
2735.815554  	97.967401 
2737.252432  	97.982626 
2738.689310  	97.995918 
2740.126188  	97.965654 
2741.563066  	97.954629 
2742.999944  	97.964068 
2744.436822  	97.946003 
2745.873700  	97.939305 
2747.310578  	97.933139 
2748.747456  	97.905742 
2750.184333  	97.882811 
2751.621211  	97.856926 
2753.058089  	97.859080 
2754.494967  	97.873210 
2755.931845  	97.829079 
2757.368723  	97.779718 
2758.805601  	97.768134 
2760.242479  	97.778667 
2761.679357  	97.800566 
2763.116235  	97.780378 
2764.553113  	97.749143 
2765.989991  	97.742865 
2767.426868  	97.706583 
2768.863746  	97.683574 
2770.300624  	97.670790 
2771.737502  	97.602319 
2773.174380  	97.579778 
2774.611258  	97.620766 
2776.048136  	97.608915 
2777.485014  	97.570939 
2778.921892  	97.569443 
2780.358770  	97.593199 
2781.795648  	97.599663 
2783.232526  	97.556394 
2784.669403  	97.509789 
2786.106281  	97.488608 
2787.543159  	97.469087 
2788.980037  	97.451612 
2790.416915  	97.408534 
2791.853793  	97.331294 
2793.290671  	97.291903 
2794.727549  	97.309665 
2796.164427  	97.308229 
2797.601305  	97.263452 
2799.038183  	97.247716 
2800.475061  	97.263793 
2801.911938  	97.245991 
2803.348816  	97.215353 
2804.785694  	97.195473 
2806.222572  	97.165909 
2807.659450  	97.134581 
2809.096328  	97.100755 
2810.533206  	97.085163 
2811.970084  	97.085377 
2813.406962  	97.044045 
2814.843840  	97.007235 
2816.280718  	97.009486 
2817.717596  	96.980773 
2819.154474  	96.930673 
2820.591351  	96.883159 
2822.028229  	96.825674 
2823.465107  	96.792954 
2824.901985  	96.782451 
2826.338863  	96.764617 
2827.775741  	96.735262 
2829.212619  	96.701145 
2830.649497  	96.676854 
2832.086375  	96.625837 
2833.523253  	96.557592 
2834.960131  	96.541387 
2836.397009  	96.529491 
2837.833886  	96.485057 
2839.270764  	96.450778 
2840.707642  	96.415905 
2842.144520  	96.380792 
2843.581398  	96.341740 
2845.018276  	96.291099 
2846.455154  	96.266833 
2847.892032  	96.224475 
2849.328910  	96.146055 
2850.765788  	96.101593 
2852.202666  	96.060279 
2853.639544  	96.006123 
2855.076421  	95.968990 
2856.513299  	95.918016 
2857.950177  	95.877913 
2859.387055  	95.854526 
2860.823933  	95.806751 
2862.260811  	95.768453 
2863.697689  	95.729151 
2865.134567  	95.668086 
2866.571445  	95.632091 
2868.008323  	95.603988 
2869.445201  	95.564993 
2870.882079  	95.527249 
2872.318956  	95.463551 
2873.755834  	95.403477 
2875.192712  	95.382474 
2876.629590  	95.340058 
2878.066468  	95.249171 
2879.503346  	95.165157 
2880.940224  	95.107101 
2882.377102  	95.041984 
2883.813980  	94.977299 
2885.250858  	94.938179 
2886.687736  	94.901728 
2888.124614  	94.850212 
2889.561491  	94.787485 
2890.998369  	94.732224 
2892.435247  	94.704368 
2893.872125  	94.662274 
2895.309003  	94.594273 
2896.745881  	94.536015 
2898.182759  	94.458133 
2899.619637  	94.374677 
2901.056515  	94.323240 
2902.493393  	94.254425 
2903.930271  	94.182881 
2905.367149  	94.150327 
2906.804026  	94.110953 
2908.240904  	94.040880 
2909.677782  	93.953956 
2911.114660  	93.887050 
2912.551538  	93.844344 
2913.988416  	93.756020 
2915.425294  	93.648613 
2916.862172  	93.583885 
2918.299050  	93.526095 
2919.735928  	93.475053 
2921.172806  	93.417276 
2922.609684  	93.303338 
2924.046561  	93.178570 
2925.483439  	93.080201 
2926.920317  	92.991811 
2928.357195  	92.914273 
2929.794073  	92.844124 
2931.230951  	92.781273 
2932.667829  	92.715941 
2934.104707  	92.634409 
2935.541585  	92.534983 
2936.978463  	92.423402 
2938.415341  	92.328558 
2939.852219  	92.216731 
2941.289096  	92.084785 
2942.725974  	92.025765 
2944.162852  	91.952343 
2945.599730  	91.799653 
2947.036608  	91.733538 
2948.473486  	91.698839 
2949.910364  	91.570288 
2951.347242  	91.479167 
2952.784120  	91.432435 
2954.220998  	91.346882 
2955.657876  	91.248076 
2957.094754  	91.110466 
2958.531631  	90.969530 
2959.968509  	90.887495 
2961.405387  	90.802503 
2962.842265  	90.700226 
2964.279143  	90.596286 
2965.716021  	90.477709 
2967.152899  	90.365075 
2968.589777  	90.247718 
2970.026655  	90.122565 
2971.463533  	90.014756 
2972.900411  	89.905495 
2974.337289  	89.774668 
2975.774166  	89.619128 
2977.211044  	89.459138 
2978.647922  	89.331676 
2980.084800  	89.241731 
2981.521678  	89.167663 
2982.958556  	89.066963 
2984.395434  	88.945727 
2985.832312  	88.839266 
2987.269190  	88.704273 
2988.706068  	88.548100 
2990.142946  	88.424355 
2991.579824  	88.300246 
2993.016701  	88.160627 
2994.453579  	88.009759 
2995.890457  	87.869092 
2997.327335  	87.769104 
2998.764213  	87.612887 
3000.201091  	87.381908 
3001.637969  	87.188564 
3003.074847  	87.023172 
3004.511725  	86.868071 
3005.948603  	86.728515 
3007.385481  	86.570401 
3008.822359  	86.411702 
3010.259236  	86.230949 
3011.696114  	86.052578 
3013.132992  	85.921857 
3014.569870  	85.728320 
3016.006748  	85.500819 
3017.443626  	85.327874 
3018.880504  	85.142239 
3020.317382  	84.975403 
3021.754260  	84.796270 
3023.191138  	84.540781 
3024.628016  	84.350065 
3026.064894  	84.200330 
3027.501771  	83.994626 
3028.938649  	83.794303 
3030.375527  	83.586747 
3031.812405  	83.383779 
3033.249283  	83.180012 
3034.686161  	82.931987 
3036.123039  	82.733949 
3037.559917  	82.546376 
3038.996795  	82.298078 
3040.433673  	82.058538 
3041.870551  	81.813651 
3043.307429  	81.598431 
3044.744306  	81.382406 
3046.181184  	81.086283 
3047.618062  	80.865229 
3049.054940  	80.655487 
3050.491818  	80.348541 
3051.928696  	80.138700 
3053.365574  	79.925574 
3054.802452  	79.611787 
3056.239330  	79.385846 
3057.676208  	79.180443 
3059.113086  	78.927587 
3060.549964  	78.693723 
3061.986842  	78.458907 
3063.423719  	78.230606 
3064.860597  	77.934239 
3066.297475  	77.594007 
3067.734353  	77.350210 
3069.171231  	77.105612 
3070.608109  	76.806193 
3072.044987  	76.502689 
3073.481865  	76.220932 
3074.918743  	76.009080 
3076.355621  	75.750879 
3077.792499  	75.434675 
3079.229377  	75.164673 
3080.666254  	74.866722 
3082.103132  	74.597065 
3083.540010  	74.342412 
3084.976888  	73.999823 
3086.413766  	73.707416 
3087.850644  	73.395194 
3089.287522  	73.030756 
3090.724400  	72.779198 
3092.161278  	72.485197 
3093.598156  	72.174702 
3095.035034  	71.960552 
3096.471912  	71.653503 
3097.908789  	71.328968 
3099.345667  	71.036800 
3100.782545  	70.714149 
3102.219423  	70.457663 
3103.656301  	70.107023 
3105.093179  	69.685293 
3106.530057  	69.405174 
3107.966935  	69.119091 
3109.403813  	68.800804 
3110.840691  	68.481008 
3112.277569  	68.149327 
3113.714447  	67.896142 
3115.151324  	67.546863 
3116.588202  	67.148165 
3118.025080  	66.880181 
3119.461958  	66.555640 
3120.898836  	66.259300 
3122.335714  	66.003353 
3123.772592  	65.616565 
3125.209470  	65.319696 
3126.646348  	65.048465 
3128.083226  	64.673690 
3129.520104  	64.348803 
3130.956982  	63.976402 
3132.393859  	63.625470 
3133.830737  	63.333883 
3135.267615  	62.963523 
3136.704493  	62.697995 
3138.141371  	62.413594 
3139.578249  	62.018553 
3141.015127  	61.773659 
3142.452005  	61.492800 
3143.888883  	61.147938 
3145.325761  	60.869140 
3146.762639  	60.487523 
3148.199517  	60.148978 
3149.636394  	59.855320 
3151.073272  	59.490802 
3152.510150  	59.242116 
3153.947028  	58.977287 
3155.383906  	58.664230 
3156.820784  	58.398135 
3158.257662  	58.044920 
3159.694540  	57.761645 
3161.131418  	57.496005 
3162.568296  	57.118517 
3164.005174  	56.868740 
3165.442052  	56.607058 
3166.878929  	56.288624 
3168.315807  	56.048621 
3169.752685  	55.717281 
3171.189563  	55.432440 
3172.626441  	55.214756 
3174.063319  	54.944670 
3175.500197  	54.779091 
3176.937075  	54.513666 
3178.373953  	54.159281 
3179.810831  	53.925132 
3181.247709  	53.618835 
3182.684587  	53.387508 
3184.121464  	53.196254 
3185.558342  	52.854222 
3186.995220  	52.689823 
3188.432098  	52.556618 
3189.868976  	52.306551 
3191.305854  	52.142263 
3192.742732  	51.872406 
3194.179610  	51.631913 
3195.616488  	51.508080 
3197.053366  	51.265649 
3198.490244  	51.100751 
3199.927122  	50.935685 
3201.363999  	50.708112 
3202.800877  	50.583235 
3204.237755  	50.338256 
3205.674633  	50.164532 
3207.111511  	50.115833 
3208.548389  	49.848820 
3209.985267  	49.666927 
3211.422145  	49.564756 
3212.859023  	49.335889 
3214.295901  	49.221705 
3215.732779  	49.098206 
3217.169657  	48.954944 
3218.606534  	48.841348 
3220.043412  	48.647666 
3221.480290  	48.627034 
3222.917168  	48.628207 
3224.354046  	48.510311 
3225.790924  	48.460032 
3227.227802  	48.286340 
3228.664680  	48.173735 
3230.101558  	48.165923 
3231.538436  	47.954650 
3232.975314  	47.866012 
3234.412192  	47.825816 
3235.849069  	47.712103 
3237.285947  	47.791768 
3238.722825  	47.715268 
3240.159703  	47.582970 
3241.596581  	47.593951 
3243.033459  	47.444104 
3244.470337  	47.444831 
3245.907215  	47.499896 
3247.344093  	47.381791 
3248.780971  	47.428021 
3250.217849  	47.325783 
3251.654727  	47.175232 
3253.091604  	47.266818 
3254.528482  	47.193536 
3255.965360  	47.171022 
3257.402238  	47.168861 
3258.839116  	47.041929 
3260.275994  	47.222392 
3261.712872  	47.216135 
3263.149750  	46.998006 
3264.586628  	47.124973 
3266.023506  	47.120264 
3267.460384  	47.090272 
3268.897262  	47.215530 
3270.334139  	47.109753 
3271.771017  	47.109677 
3273.207895  	47.160825 
3274.644773  	47.107005 
3276.081651  	47.203015 
3277.518529  	47.154849 
3278.955407  	47.134655 
3280.392285  	47.247876 
3281.829163  	47.136000 
3283.266041  	47.137934 
3284.702919  	47.180176 
3286.139797  	47.081095 
3287.576674  	47.155547 
3289.013552  	47.172337 
3290.450430  	47.181785 
3291.887308  	47.256718 
3293.324186  	47.149529 
3294.761064  	47.200895 
3296.197942  	47.268610 
3297.634820  	47.197575 
3299.071698  	47.341227 
3300.508576  	47.345912 
3301.945454  	47.226890 
3303.382332  	47.250592 
3304.819210  	47.178232 
3306.256087  	47.227204 
3307.692965  	47.294055 
3309.129843  	47.240553 
3310.566721  	47.398190 
3312.003599  	47.423960 
3313.440477  	47.372306 
3314.877355  	47.510633 
3316.314233  	47.437839 
3317.751111  	47.367040 
3319.187989  	47.394336 
3320.624867  	47.343830 
3322.061745  	47.471515 
3323.498622  	47.482618 
3324.935500  	47.396783 
3326.372378  	47.520948 
3327.809256  	47.497712 
3329.246134  	47.511672 
3330.683012  	47.652657 
3332.119890  	47.608188 
3333.556768  	47.610617 
3334.993646  	47.583456 
3336.430524  	47.550574 
3337.867402  	47.692057 
3339.304280  	47.664648 
3340.741157  	47.649040 
3342.178035  	47.747451 
3343.614913  	47.775617 
3345.051791  	47.938202 
3346.488669  	47.936176 
3347.925547  	47.818235 
3349.362425  	47.953068 
3350.799303  	47.963274 
3352.236181  	48.010836 
3353.673059  	48.166641 
3355.109937  	48.087632 
3356.546815  	48.188096 
3357.983692  	48.342495 
3359.420570  	48.313122 
3360.857448  	48.456785 
3362.294326  	48.544367 
3363.731204  	48.615734 
3365.168082  	48.743849 
3366.604960  	48.650448 
3368.041838  	48.729900 
3369.478716  	48.891767 
3370.915594  	48.901086 
3372.352472  	49.084425 
3373.789350  	49.156437 
3375.226227  	49.148007 
3376.663105  	49.300684 
3378.099983  	49.369057 
3379.536861  	49.569931 
3380.973739  	49.755710 
3382.410617  	49.759076 
3383.847495  	49.983730 
3385.284373  	50.120196 
3386.721251  	50.181159 
3388.158129  	50.436936 
3389.595007  	50.459879 
3391.031885  	50.517405 
3392.468762  	50.813374 
3393.905640  	50.955944 
3395.342518  	51.060509 
3396.779396  	51.152510 
3398.216274  	51.304324 
3399.653152  	51.525027 
3401.090030  	51.535165 
3402.526908  	51.722326 
3403.963786  	52.069548 
3405.400664  	52.210625 
3406.837542  	52.464858 
3408.274420  	52.664294 
3409.711297  	52.725243 
3411.148175  	52.952418 
3412.585053  	53.087238 
3414.021931  	53.262135 
3415.458809  	53.596145 
3416.895687  	53.771061 
3418.332565  	53.915573 
3419.769443  	54.048017 
3421.206321  	54.252431 
3422.643199  	54.617758 
3424.080077  	54.771833 
3425.516955  	54.923175 
3426.953832  	55.198658 
3428.390710  	55.330104 
3429.827588  	55.541562 
3431.264466  	55.798448 
3432.701344  	56.017164 
3434.138222  	56.257282 
3435.575100  	56.316549 
3437.011978  	56.502905 
3438.448856  	56.854132 
3439.885734  	57.028943 
3441.322612  	57.308185 
3442.759490  	57.618160 
3444.196367  	57.800581 
3445.633245  	58.026608 
3447.070123  	58.145046 
3448.507001  	58.399509 
3449.943879  	58.811794 
3451.380757  	59.002173 
3452.817635  	59.211986 
3454.254513  	59.431308 
3455.691391  	59.600646 
3457.128269  	59.901141 
3458.565147  	60.067198 
3460.002025  	60.222558 
3461.438902  	60.507710 
3462.875780  	60.753940 
3464.312658  	61.130640 
3465.749536  	61.348957 
3467.186414  	61.407121 
3468.623292  	61.725335 
3470.060170  	61.938608 
3471.497048  	62.138760 
3472.933926  	62.509462 
3474.370804  	62.627782 
3475.807682  	62.797468 
3477.244560  	63.100090 
3478.681437  	63.266025 
3480.118315  	63.546273 
3481.555193  	63.769257 
3482.992071  	63.931292 
3484.428949  	64.242896 
3485.865827  	64.451697 
3487.302705  	64.716976 
3488.739583  	64.991835 
3490.176461  	65.109943 
3491.613339  	65.423977 
3493.050217  	65.714373 
3494.487095  	65.860318 
3495.923972  	66.147405 
3497.360850  	66.386748 
3498.797728  	66.588780 
3500.234606  	66.802804 
3501.671484  	66.997457 
3503.108362  	67.378041 
3504.545240  	67.695919 
3505.982118  	67.860614 
3507.418996  	68.040649 
3508.855874  	68.155417 
3510.292752  	68.426781 
3511.729630  	68.728434 
3513.166507  	68.902174 
3514.603385  	69.287418 
3516.040263  	69.590561 
3517.477141  	69.719269 
3518.914019  	70.007363 
3520.350897  	70.215216 
3521.787775  	70.387144 
3523.224653  	70.633217 
3524.661531  	70.846180 
3526.098409  	71.219799 
3527.535287  	71.517406 
3528.972165  	71.680421 
3530.409043  	71.985760 
3531.845920  	72.174430 
3533.282798  	72.337433 
3534.719676  	72.595461 
3536.156554  	72.784324 
3537.593432  	73.127485 
3539.030310  	73.463079 
3540.467188  	73.644915 
3541.904066  	73.892557 
3543.340944  	74.034846 
3544.777822  	74.206614 
3546.214700  	74.573749 
3547.651578  	74.818346 
3549.088455  	75.066440 
3550.525333  	75.311422 
3551.962211  	75.446027 
3553.399089  	75.685668 
3554.835967  	75.933311 
3556.272845  	76.190448 
3557.709723  	76.501950 
3559.146601  	76.666623 
3560.583479  	76.835873 
3562.020357  	77.107383 
3563.457235  	77.373128 
3564.894113  	77.575173 
3566.330990  	77.643120 
3567.767868  	77.962115 
3569.204746  	78.493911 
3570.641624  	78.711500 
3572.078502  	78.888311 
3573.515380  	79.023139 
3574.952258  	79.135435 
3576.389136  	79.484239 
3577.826014  	79.729462 
3579.262892  	79.819520 
3580.699770  	80.052370 
3582.136648  	80.300452 
3583.573525  	80.563832 
3585.010403  	80.764458 
3586.447281  	80.885567 
3587.884159  	81.288555 
3589.321037  	81.665694 
3590.757915  	81.761612 
3592.194793  	81.905761 
3593.631671  	82.067212 
3595.068549  	82.282890 
3596.505427  	82.542046 
3597.942305  	82.753353 
3599.379183  	82.982671 
3600.816060  	83.106658 
3602.252938  	83.238156 
3603.689816  	83.497587 
3605.126694  	83.661581 
3606.563572  	83.829015 
3608.000450  	84.069403 
3609.437328  	84.313556 
3610.874206  	84.637105 
3612.311084  	84.872396 
3613.747962  	85.087147 
3615.184840  	85.336113 
3616.621718  	85.396438 
3618.058595  	85.504382 
3619.495473  	85.751555 
3620.932351  	85.906693 
3622.369229  	86.143457 
3623.806107  	86.410512 
3625.242985  	86.582164 
3626.679863  	86.716596 
3628.116741  	86.911286 
3629.553619  	87.398460 
3630.990497  	87.683357 
3632.427375  	87.727934 
3633.864253  	88.014501 
3635.301130  	88.207416 
3636.738008  	88.258781 
3638.174886  	88.528338 
3639.611764  	88.782858 
3641.048642  	89.028210 
3642.485520  	89.255709 
3643.922398  	89.487072 
3645.359276  	89.752603 
3646.796154  	89.955273 
3648.233032  	90.109025 
3649.669910  	90.473430 
3651.106788  	90.809496 
3652.543665  	91.066474 
3653.980543  	91.293845 
3655.417421  	91.506429 
3656.854299  	91.867895 
3658.291177  	92.172565 
3659.728055  	92.293013 
3661.164933  	92.509960 
3662.601811  	92.780505 
3664.038689  	92.987149 
3665.475567  	93.192268 
3666.912445  	93.417706 
3668.349323  	93.629256 
3669.786200  	93.790628 
3671.223078  	94.086634 
3672.659956  	94.395032 
3674.096834  	94.524030 
3675.533712  	94.775463 
3676.970590  	95.107298 
3678.407468  	95.151432 
3679.844346  	95.346364 
3681.281224  	95.577209 
3682.718102  	95.679789 
3684.154980  	95.797553 
3685.591858  	95.915860 
3687.028735  	96.024517 
3688.465613  	96.168456 
3689.902491  	96.244646 
3691.339369  	96.312381 
3692.776247  	96.407222 
3694.213125  	96.496368 
3695.650003  	96.571696 
3697.086881  	96.588475 
3698.523759  	96.667337 
3699.960637  	96.799092 
3701.397515  	96.863725 
3702.834393  	96.910958 
3704.271270  	96.971288 
3705.708148  	96.997879 
3707.145026  	97.055123 
3708.581904  	97.093089 
3710.018782  	97.127160 
3711.455660  	97.257684 
3712.892538  	97.386030 
3714.329416  	97.434346 
3715.766294  	97.497300 
3717.203172  	97.503843 
3718.640050  	97.525873 
3720.076928  	97.582556 
3721.513805  	97.580789 
3722.950683  	97.569963 
3724.387561  	97.607842 
3725.824439  	97.694527 
3727.261317  	97.724802 
3728.698195  	97.703172 
3730.135073  	97.779051 
3731.571951  	97.865262 
3733.008829  	97.852041 
3734.445707  	97.870800 
3735.882585  	97.878417 
3737.319463  	97.903104 
3738.756340  	98.019529 
3740.193218  	98.091693 
3741.630096  	98.094558 
3743.066974  	98.162542 
3744.503852  	98.287572 
3745.940730  	98.261285 
3747.377608  	98.249749 
3748.814486  	98.335768 
3750.251364  	98.386722 
3751.688242  	98.394954 
3753.125120  	98.418252 
3754.561998  	98.390481 
3755.998875  	98.438297 
3757.435753  	98.523470 
3758.872631  	98.559586 
3760.309509  	98.569725 
3761.746387  	98.584836 
3763.183265  	98.640745 
3764.620143  	98.718688 
3766.057021  	98.716715 
3767.493899  	98.677502 
3768.930777  	98.715881 
3770.367655  	98.738385 
3771.804533  	98.781044 
3773.241411  	98.819788 
3774.678288  	98.829505 
3776.115166  	98.858576 
3777.552044  	98.849518 
3778.988922  	98.796205 
3780.425800  	98.786739 
3781.862678  	98.807785 
3783.299556  	98.824275 
3784.736434  	98.807930 
3786.173312  	98.783248 
3787.610190  	98.783888 
3789.047068  	98.771965 
3790.483946  	98.754575 
3791.920823  	98.762475 
3793.357701  	98.731504 
3794.794579  	98.768540 
3796.231457  	98.830895 
3797.668335  	98.719312 
3799.105213  	98.699618 
3800.542091  	98.831963 
3801.978969  	98.865883 
3803.415847  	98.763970 
3804.852725  	98.726292 
3806.289603  	98.779574 
3807.726481  	98.806163 
3809.163358  	98.746732 
3810.600236  	98.746526 
3812.037114  	98.766733 
3813.473992  	98.777956 
3814.910870  	98.808525 
3816.347748  	98.731055 
3817.784626  	98.697368 
3819.221504  	98.798716 
3820.658382  	98.893670 
3822.095260  	98.877061 
3823.532138  	98.767842 
3824.969016  	98.769671 
3826.405893  	98.857343 
3827.842771  	98.801642 
3829.279649  	98.800764 
3830.716527  	98.955282 
3832.153405  	98.970892 
3833.590283  	98.879926 
3835.027161  	98.886680 
3836.464039  	98.927667 
3837.900917  	98.903762 
3839.337795  	98.743824 
3840.774673  	98.738998 
3842.211551  	98.887790 
3843.648428  	98.900970 
3845.085306  	98.898947 
3846.522184  	98.979282 
3847.959062  	98.997091 
3849.395940  	98.980829 
3850.832818  	98.999630 
3852.269696  	99.077945 
3853.706574  	99.003048 
3855.143452  	98.775755 
3856.580330  	98.877304 
3858.017208  	98.967435 
3859.454086  	98.907945 
3860.890963  	98.889461 
3862.327841  	98.946719 
3863.764719  	99.016492 
3865.201597  	99.008056 
3866.638475  	98.920830 
3868.075353  	99.016561 
3869.512231  	99.031093 
3870.949109  	98.692934 
3872.385987  	98.821890 
3873.822865  	99.078503 
3875.259743  	99.019249 
3876.696621  	98.963093 
3878.133498  	99.028601 
3879.570376  	99.055132 
3881.007254  	98.992344 
3882.444132  	98.911932 
3883.881010  	99.020471 
3885.317888  	99.163833 
3886.754766  	99.031406 
3888.191644  	98.982942 
3889.628522  	99.094198 
3891.065400  	99.113742 
3892.502278  	98.990415 
3893.939156  	98.909821 
3895.376033  	98.939983 
3896.812911  	99.005532 
3898.249789  	99.043290 
3899.686667  	99.076907 
3901.123545  	99.045299 
3902.560423  	99.015548 
3903.997301  	99.016315 
3905.434179  	98.914317 
3906.871057  	98.909995 
3908.307935  	99.001322 
3909.744813  	99.024256 
3911.181691  	99.060475 
3912.618568  	99.081695 
3914.055446  	99.035444 
3915.492324  	99.046142 
3916.929202  	99.046883 
3918.366080  	98.995289 
3919.802958  	98.962957 
3921.239836  	98.918310 
3922.676714  	98.946781 
3924.113592  	99.020248 
3925.550470  	99.034447 
3926.987348  	99.040376 
3928.424226  	99.023072 
3929.861103  	99.009679 
3931.297981  	99.053707 
3932.734859  	99.033004 
3934.171737  	98.968749 
3935.608615  	98.967435 
3937.045493  	98.980992 
3938.482371  	98.987582 
3939.919249  	98.994832 
3941.356127  	99.014577 
3942.793005  	99.007448 
3944.229883  	98.957186 
3945.666761  	98.970036 
3947.103638  	99.000388 
3948.540516  	98.969602 
3949.977394  	98.943877 
3951.414272  	98.930879 
3952.851150  	98.946542 
3954.288028  	98.999063 
3955.724906  	99.012887 
3957.161784  	99.028795 
3958.598662  	99.037573 
3960.035540  	98.996332 
3961.472418  	98.976990 
3962.909296  	98.968536 
3964.346173  	98.989035 
3965.783051  	99.053463 
3967.219929  	99.025657 
3968.656807  	98.959768 
3970.093685  	98.997239 
3971.530563  	99.044094 
3972.967441  	98.985690 
3974.404319  	98.895743 
3975.841197  	98.932963 
3977.278075  	99.015122 
3978.714953  	98.979510 
3980.151831  	98.940153 
3981.588708  	98.932117 
3983.025586  	98.901877 
3984.462464  	98.928571 
3985.899342  	98.961779 
3987.336220  	98.988383 
3988.773098  	99.040183 
3990.209976  	99.001670 
3991.646854  	98.944284 
3993.083732  	98.952124 
3994.520610  	98.951683 
3995.957488  	98.982803 
3997.394366  	98.986054 
3998.831244  	98.934491 
4000.268121  	98.961742 