##TITLE=No Description
##DATA TYPE=INFRARED SPECTRUM
##XUNITS=1/CM
##YUNITS=%T
399.452061  	29.292118 
400.888939  	27.674671 
402.325817  	28.033054 
403.762695  	29.571172 
405.199573  	29.677863 
406.636451  	30.205741 
408.073328  	29.937836 
409.510206  	29.583820 
410.947084  	30.260158 
412.383962  	29.718499 
413.820840  	29.177682 
415.257718  	29.905310 
416.694596  	30.389672 
418.131474  	30.538062 
419.568352  	30.703576 
421.005230  	30.695016 
422.442108  	30.227233 
423.878986  	29.417860 
425.315863  	30.026651 
426.752741  	30.955422 
428.189619  	30.897189 
429.626497  	30.505653 
431.063375  	30.195295 
432.500253  	29.935896 
433.937131  	29.651736 
435.374009  	29.608964 
436.810887  	30.255787 
438.247765  	30.449913 
439.684643  	30.276721 
441.121521  	30.558778 
442.558398  	30.408641 
443.995276  	30.512698 
445.432154  	30.968511 
446.869032  	30.628818 
448.305910  	30.134048 
449.742788  	29.947800 
451.179666  	30.094919 
452.616544  	30.627051 
454.053422  	30.419288 
455.490300  	30.155478 
456.927178  	30.683901 
458.364056  	31.094392 
459.800933  	31.300167 
461.237811  	31.290642 
462.674689  	31.076073 
464.111567  	31.251768 
465.548445  	30.979792 
466.985323  	30.591669 
468.422201  	30.736399 
469.859079  	30.486867 
471.295957  	30.618009 
472.732835  	31.308119 
474.169713  	31.194747 
475.606591  	31.079675 
477.043469  	31.114887 
478.480346  	30.897195 
479.917224  	31.028900 
481.354102  	31.205172 
482.790980  	31.144017 
484.227858  	31.085185 
485.664736  	30.888201 
487.101614  	30.872418 
488.538492  	31.083570 
489.975370  	31.152833 
491.412248  	31.250843 
492.849126  	31.430574 
494.286004  	31.452757 
495.722881  	31.373146 
497.159759  	31.368166 
498.596637  	31.367377 
500.033515  	31.174155 
501.470393  	31.151383 
502.907271  	31.527171 
504.344149  	31.738564 
505.781027  	31.811650 
507.217905  	31.817135 
508.654783  	31.548800 
510.091661  	31.472597 
511.528539  	31.693934 
512.965416  	31.802720 
514.402294  	31.783045 
515.839172  	31.735889 
517.276050  	31.762815 
518.712928  	31.912370 
520.149806  	31.974716 
521.586684  	31.989876 
523.023562  	32.081905 
524.460440  	32.097373 
525.897318  	32.040319 
527.334196  	32.043098 
528.771074  	32.084106 
530.207951  	32.169063 
531.644829  	32.300194 
533.081707  	32.362056 
534.518585  	32.359260 
535.955463  	32.515690 
537.392341  	32.828884 
538.829219  	32.960879 
540.266097  	32.866719 
541.702975  	32.878146 
543.139853  	33.000783 
544.576731  	33.049791 
546.013609  	33.130472 
547.450486  	33.215793 
548.887364  	33.134284 
550.324242  	33.107030 
551.761120  	33.249805 
553.197998  	33.336054 
554.634876  	33.389999 
556.071754  	33.508090 
557.508632  	33.631748 
558.945510  	33.750521 
560.382388  	33.811372 
561.819266  	33.825907 
563.256144  	33.877819 
564.693021  	33.959808 
566.129899  	34.132693 
567.566777  	34.315073 
569.003655  	34.369139 
570.440533  	34.450783 
571.877411  	34.587163 
573.314289  	34.668795 
574.751167  	34.738518 
576.188045  	34.753860 
577.624923  	34.754125 
579.061801  	34.874562 
580.498679  	35.058017 
581.935556  	35.224772 
583.372434  	35.338206 
584.809312  	35.424210 
586.246190  	35.556530 
587.683068  	35.642021 
589.119946  	35.651510 
590.556824  	35.735336 
591.993702  	35.923705 
593.430580  	36.099635 
594.867458  	36.186226 
596.304336  	36.314284 
597.741214  	36.558457 
599.178091  	36.699441 
600.614969  	36.749278 
602.051847  	36.894953 
603.488725  	37.040373 
604.925603  	37.175768 
606.362481  	37.314822 
607.799359  	37.349589 
609.236237  	37.393636 
610.673115  	37.534849 
612.109993  	37.733543 
613.546871  	37.989344 
614.983749  	38.127284 
616.420626  	38.183199 
617.857504  	38.332601 
619.294382  	38.508572 
620.731260  	38.620841 
622.168138  	38.741867 
623.605016  	38.871288 
625.041894  	39.015383 
626.478772  	39.166378 
627.915650  	39.247477 
629.352528  	39.291525 
630.789406  	39.345033 
632.226284  	39.491787 
633.663161  	39.616052 
635.100039  	39.732669 
636.536917  	39.875323 
637.973795  	40.016318 
639.410673  	40.134063 
640.847551  	40.284725 
642.284429  	40.471983 
643.721307  	40.619718 
645.158185  	40.756634 
646.595063  	40.902776 
648.031941  	41.073729 
649.468819  	41.265678 
650.905696  	41.453631 
652.342574  	41.631804 
653.779452  	41.780045 
655.216330  	41.893027 
656.653208  	42.037909 
658.090086  	42.241411 
659.526964  	42.429833 
660.963842  	42.583102 
662.400720  	42.741771 
663.837598  	42.910727 
665.274476  	43.036417 
666.711354  	43.179383 
668.148231  	43.414846 
669.585109  	43.696015 
671.021987  	43.823297 
672.458865  	43.975504 
673.895743  	44.185867 
675.332621  	44.348385 
676.769499  	44.480166 
678.206377  	44.671660 
679.643255  	44.865050 
681.080133  	45.067787 
682.517011  	45.294649 
683.953889  	45.514419 
685.390766  	45.709077 
686.827644  	45.873892 
688.264522  	46.073581 
689.701400  	46.315070 
691.138278  	46.521212 
692.575156  	46.704909 
694.012034  	46.893448 
695.448912  	47.065394 
696.885790  	47.241104 
698.322668  	47.431046 
699.759546  	47.631039 
701.196424  	47.860248 
702.633301  	48.085609 
704.070179  	48.301477 
705.507057  	48.527276 
706.943935  	48.740984 
708.380813  	48.941234 
709.817691  	49.150894 
711.254569  	49.370098 
712.691447  	49.574554 
714.128325  	49.776068 
715.565203  	50.013038 
717.002081  	50.256127 
718.438959  	50.453300 
719.875837  	50.643859 
721.312714  	50.875529 
722.749592  	51.136160 
724.186470  	51.360012 
725.623348  	51.513374 
727.060226  	51.723970 
728.497104  	51.976163 
729.933982  	52.166540 
731.370860  	52.353876 
732.807738  	52.579165 
734.244616  	52.819391 
735.681494  	53.064743 
737.118372  	53.307212 
738.555249  	53.548946 
739.992127  	53.792508 
741.429005  	54.041101 
742.865883  	54.313061 
744.302761  	54.534671 
745.739639  	54.739964 
747.176517  	55.035403 
748.613395  	55.297577 
750.050273  	55.466929 
751.487151  	55.687761 
752.924029  	55.980569 
754.360907  	56.239962 
755.797784  	56.412252 
757.234662  	56.608545 
758.671540  	56.908846 
760.108418  	57.175815 
761.545296  	57.399969 
762.982174  	57.667105 
764.419052  	57.912044 
765.855930  	58.164959 
767.292808  	58.434125 
768.729686  	58.626705 
770.166564  	58.843933 
771.603442  	59.140853 
773.040319  	59.423125 
774.477197  	59.691734 
775.914075  	59.955598 
777.350953  	60.208188 
778.787831  	60.441518 
780.224709  	60.645442 
781.661587  	60.914076 
783.098465  	61.237414 
784.535343  	61.491838 
785.972221  	61.721164 
787.409099  	61.979434 
788.845977  	62.223844 
790.282854  	62.449866 
791.719732  	62.670456 
793.156610  	62.920685 
794.593488  	63.218928 
796.030366  	63.536176 
797.467244  	63.854733 
798.904122  	64.127308 
800.341000  	64.354417 
801.777878  	64.606297 
803.214756  	64.862816 
804.651634  	65.107628 
806.088512  	65.374823 
807.525389  	65.639318 
808.962267  	65.915181 
810.399145  	66.209754 
811.836023  	66.461125 
813.272901  	66.715696 
814.709779  	67.012489 
816.146657  	67.283960 
817.583535  	67.550312 
819.020413  	67.812322 
820.457291  	68.020345 
821.894169  	68.273573 
823.331047  	68.587462 
824.767924  	68.852237 
826.204802  	69.109061 
827.641680  	69.376860 
829.078558  	69.606571 
830.515436  	69.857235 
831.952314  	70.134023 
833.389192  	70.405596 
834.826070  	70.695719 
836.262948  	70.975852 
837.699826  	71.235256 
839.136704  	71.492956 
840.573582  	71.768709 
842.010459  	72.078464 
843.447337  	72.348518 
844.884215  	72.598646 
846.321093  	72.909880 
847.757971  	73.192561 
849.194849  	73.439280 
850.631727  	73.709441 
852.068605  	73.964957 
853.505483  	74.243397 
854.942361  	74.503301 
856.379239  	74.698762 
857.816117  	74.960018 
859.252994  	75.244161 
860.689872  	75.482223 
862.126750  	75.753155 
863.563628  	75.997428 
865.000506  	76.229543 
866.437384  	76.532004 
867.874262  	76.809517 
869.311140  	77.052369 
870.748018  	77.307231 
872.184896  	77.554948 
873.621774  	77.822150 
875.058652  	78.068439 
876.495529  	78.267109 
877.932407  	78.488823 
879.369285  	78.742693 
880.806163  	79.004365 
882.243041  	79.242850 
883.679919  	79.459277 
885.116797  	79.714501 
886.553675  	79.984490 
887.990553  	80.217676 
889.427431  	80.438419 
890.864309  	80.681127 
892.301187  	80.926504 
893.738064  	81.106765 
895.174942  	81.259863 
896.611820  	81.472903 
898.048698  	81.701589 
899.485576  	81.908239 
900.922454  	82.111193 
902.359332  	82.316326 
903.796210  	82.525950 
905.233088  	82.713233 
906.669966  	82.899930 
908.106844  	83.089729 
909.543722  	83.235890 
910.980599  	83.417450 
912.417477  	83.642526 
913.854355  	83.815076 
915.291233  	83.978722 
916.728111  	84.154026 
918.164989  	84.337404 
919.601867  	84.547972 
921.038745  	84.698740 
922.475623  	84.823929 
923.912501  	85.026799 
925.349379  	85.228062 
926.786257  	85.353753 
928.223134  	85.447989 
929.660012  	85.605387 
931.096890  	85.801723 
932.533768  	85.916856 
933.970646  	86.028769 
935.407524  	86.199996 
936.844402  	86.348748 
938.281280  	86.491629 
939.718158  	86.609819 
941.155036  	86.719527 
942.591914  	86.888902 
944.028792  	87.017207 
945.465670  	87.130943 
946.902547  	87.277709 
948.339425  	87.341099 
949.776303  	87.420673 
951.213181  	87.563700 
952.650059  	87.650261 
954.086937  	87.752850 
955.523815  	87.869340 
956.960693  	87.945148 
958.397571  	88.053023 
959.834449  	88.168672 
961.271327  	88.280351 
962.708205  	88.374468 
964.145082  	88.404910 
965.581960  	88.470398 
967.018838  	88.575617 
968.455716  	88.653841 
969.892594  	88.742965 
971.329472  	88.825124 
972.766350  	88.914376 
974.203228  	89.019484 
975.640106  	89.074722 
977.076984  	89.123413 
978.513862  	89.171745 
979.950740  	89.198413 
981.387617  	89.272858 
982.824495  	89.370678 
984.261373  	89.447904 
985.698251  	89.500758 
987.135129  	89.525688 
988.572007  	89.585988 
990.008885  	89.672838 
991.445763  	89.738828 
992.882641  	89.782486 
994.319519  	89.781964 
995.756397  	89.809179 
997.193275  	89.885619 
998.630152  	89.924888 
1000.067030  	89.963830 
1001.503908  	90.002661 
1002.940786  	90.020598 
1004.377664  	90.085678 
1005.814542  	90.144863 
1007.251420  	90.173632 
1008.688298  	90.227985 
1010.125176  	90.266892 
1011.562054  	90.292169 
1012.998932  	90.320917 
1014.435810  	90.347392 
1015.872687  	90.400027 
1017.309565  	90.448174 
1018.746443  	90.487477 
1020.183321  	90.515858 
1021.620199  	90.512298 
1023.057077  	90.544994 
1024.493955  	90.570981 
1025.930833  	90.557764 
1027.367711  	90.612473 
1028.804589  	90.661872 
1030.241467  	90.661246 
1031.678345  	90.707728 
1033.115222  	90.749787 
1034.552100  	90.766742 
1035.988978  	90.783880 
1037.425856  	90.782549 
1038.862734  	90.816539 
1040.299612  	90.851041 
1041.736490  	90.846837 
1043.173368  	90.872505 
1044.610246  	90.903944 
1046.047124  	90.920143 
1047.484002  	90.946799 
1048.920880  	90.990495 
1050.357757  	91.045521 
1051.794635  	91.039356 
1053.231513  	91.024283 
1054.668391  	91.080114 
1056.105269  	91.105242 
1057.542147  	91.109875 
1058.979025  	91.140109 
1060.415903  	91.158760 
1061.852781  	91.208111 
1063.289659  	91.242901 
1064.726537  	91.244676 
1066.163415  	91.269758 
1067.600292  	91.263295 
1069.037170  	91.300673 
1070.474048  	91.392032 
1071.910926  	91.376189 
1073.347804  	91.336565 
1074.784682  	91.343774 
1076.221560  	91.362219 
1077.658438  	91.427845 
1079.095316  	91.460527 
1080.532194  	91.465387 
1081.969072  	91.486617 
1083.405950  	91.458414 
1084.842827  	91.484152 
1086.279705  	91.537303 
1087.716583  	91.499429 
1089.153461  	91.526677 
1090.590339  	91.602446 
1092.027217  	91.596605 
1093.464095  	91.580936 
1094.900973  	91.568253 
1096.337851  	91.573300 
1097.774729  	91.611135 
1099.211607  	91.629501 
1100.648485  	91.649178 
1102.085362  	91.629824 
1103.522240  	91.585411 
1104.959118  	91.618183 
1106.395996  	91.653816 
1107.832874  	91.657338 
1109.269752  	91.672679 
1110.706630  	91.669321 
1112.143508  	91.673928 
1113.580386  	91.681196 
1115.017264  	91.676827 
1116.454142  	91.690734 
1117.891020  	91.674930 
1119.327897  	91.665775 
1120.764775  	91.703428 
1122.201653  	91.711370 
1123.638531  	91.708122 
1125.075409  	91.700539 
1126.512287  	91.671137 
1127.949165  	91.680946 
1129.386043  	91.710607 
1130.822921  	91.739506 
1132.259799  	91.758994 
1133.696677  	91.719593 
1135.133555  	91.683776 
1136.570432  	91.689574 
1138.007310  	91.696618 
1139.444188  	91.695924 
1140.881066  	91.667601 
1142.317944  	91.660517 
1143.754822  	91.685448 
1145.191700  	91.664092 
1146.628578  	91.648561 
1148.065456  	91.656924 
1149.502334  	91.642825 
1150.939212  	91.651079 
1152.376090  	91.643247 
1153.812967  	91.605868 
1155.249845  	91.620367 
1156.686723  	91.640533 
1158.123601  	91.626022 
1159.560479  	91.610402 
1160.997357  	91.599242 
1162.434235  	91.605316 
1163.871113  	91.605028 
1165.307991  	91.584309 
1166.744869  	91.571996 
1168.181747  	91.568157 
1169.618625  	91.574112 
1171.055502  	91.556290 
1172.492380  	91.511630 
1173.929258  	91.508727 
1175.366136  	91.515448 
1176.803014  	91.505928 
1178.239892  	91.522203 
1179.676770  	91.530523 
1181.113648  	91.524105 
1182.550526  	91.519248 
1183.987404  	91.502057 
1185.424282  	91.495416 
1186.861160  	91.491137 
1188.298038  	91.498859 
1189.734915  	91.531672 
1191.171793  	91.522239 
1192.608671  	91.491060 
1194.045549  	91.488648 
1195.482427  	91.491477 
1196.919305  	91.506301 
1198.356183  	91.509818 
1199.793061  	91.498926 
1201.229939  	91.508985 
1202.666817  	91.498239 
1204.103695  	91.482790 
1205.540573  	91.484277 
1206.977450  	91.460383 
1208.414328  	91.458115 
1209.851206  	91.474090 
1211.288084  	91.456959 
1212.724962  	91.448834 
1214.161840  	91.452339 
1215.598718  	91.464731 
1217.035596  	91.476973 
1218.472474  	91.445621 
1219.909352  	91.437594 
1221.346230  	91.460028 
1222.783108  	91.445951 
1224.219985  	91.447653 
1225.656863  	91.457078 
1227.093741  	91.433241 
1228.530619  	91.427441 
1229.967497  	91.437142 
1231.404375  	91.443675 
1232.841253  	91.444679 
1234.278131  	91.432300 
1235.715009  	91.434295 
1237.151887  	91.440452 
1238.588765  	91.442355 
1240.025643  	91.442420 
1241.462520  	91.418031 
1242.899398  	91.416355 
1244.336276  	91.436381 
1245.773154  	91.430944 
1247.210032  	91.443328 
1248.646910  	91.448068 
1250.083788  	91.416731 
1251.520666  	91.411288 
1252.957544  	91.417437 
1254.394422  	91.418345 
1255.831300  	91.418209 
1257.268178  	91.405477 
1258.705055  	91.418909 
1260.141933  	91.424319 
1261.578811  	91.392779 
1263.015689  	91.396067 
1264.452567  	91.416071 
1265.889445  	91.420320 
1267.326323  	91.419211 
1268.763201  	91.394748 
1270.200079  	91.384359 
1271.636957  	91.404843 
1273.073835  	91.420626 
1274.510713  	91.424359 
1275.947590  	91.410506 
1277.384468  	91.404292 
1278.821346  	91.395612 
1280.258224  	91.367115 
1281.695102  	91.377731 
1283.131980  	91.391065 
1284.568858  	91.382428 
1286.005736  	91.403642 
1287.442614  	91.385640 
1288.879492  	91.344959 
1290.316370  	91.361632 
1291.753248  	91.371389 
1293.190125  	91.371149 
1294.627003  	91.360801 
1296.063881  	91.329054 
1297.500759  	91.353830 
1298.937637  	91.374431 
1300.374515  	91.351711 
1301.811393  	91.343013 
1303.248271  	91.335971 
1304.685149  	91.318719 
1306.122027  	91.331622 
1307.558905  	91.331635 
1308.995783  	91.362384 
1310.432660  	91.383749 
1311.869538  	91.352792 
1313.306416  	91.347979 
1314.743294  	91.345216 
1316.180172  	91.331401 
1317.617050  	91.348267 
1319.053928  	91.338615 
1320.490806  	91.332557 
1321.927684  	91.360994 
1323.364562  	91.370871 
1324.801440  	91.377191 
1326.238318  	91.365998 
1327.675195  	91.352692 
1329.112073  	91.368362 
1330.548951  	91.361500 
1331.985829  	91.346883 
1333.422707  	91.345116 
1334.859585  	91.318205 
1336.296463  	91.314255 
1337.733341  	91.308922 
1339.170219  	91.292763 
1340.607097  	91.329234 
1342.043975  	91.360761 
1343.480853  	91.367676 
1344.917730  	91.370435 
1346.354608  	91.364726 
1347.791486  	91.353565 
1349.228364  	91.345663 
1350.665242  	91.343574 
1352.102120  	91.350973 
1353.538998  	91.326121 
1354.975876  	91.318413 
1356.412754  	91.343087 
1357.849632  	91.329830 
1359.286510  	91.323329 
1360.723388  	91.317199 
1362.160265  	91.298952 
1363.597143  	91.318555 
1365.034021  	91.339023 
1366.470899  	91.339243 
1367.907777  	91.332825 
1369.344655  	91.315318 
1370.781533  	91.314362 
1372.218411  	91.300948 
1373.655289  	91.286914 
1375.092167  	91.304674 
1376.529045  	91.316250 
1377.965923  	91.322311 
1379.402800  	91.324182 
1380.839678  	91.307866 
1382.276556  	91.320034 
1383.713434  	91.320467 
1385.150312  	91.284261 
1386.587190  	91.278107 
1388.024068  	91.294593 
1389.460946  	91.287793 
1390.897824  	91.266340 
1392.334702  	91.251438 
1393.771580  	91.257090 
1395.208458  	91.247624 
1396.645335  	91.247060 
1398.082213  	91.280478 
1399.519091  	91.292275 
1400.955969  	91.296382 
1402.392847  	91.294162 
1403.829725  	91.255662 
1405.266603  	91.262392 
1406.703481  	91.274132 
1408.140359  	91.251144 
1409.577237  	91.235980 
1411.014115  	91.216278 
1412.450993  	91.159695 
1413.887871  	91.155970 
1415.324748  	91.116750 
1416.761626  	91.055883 
1418.198504  	91.078711 
1419.635382  	91.152010 
1421.072260  	91.207444 
1422.509138  	91.172620 
1423.946016  	91.121288 
1425.382894  	91.141254 
1426.819772  	91.135617 
1428.256650  	91.116108 
1429.693528  	91.095762 
1431.130406  	91.065225 
1432.567283  	91.057035 
1434.004161  	91.063774 
1435.441039  	91.068700 
1436.877917  	91.092124 
1438.314795  	91.106813 
1439.751673  	91.096077 
1441.188551  	91.086837 
1442.625429  	91.050051 
1444.062307  	91.035009 
1445.499185  	91.021563 
1446.936063  	90.982326 
1448.372941  	90.962309 
1449.809818  	90.929456 
1451.246696  	90.897463 
1452.683574  	90.895833 
1454.120452  	90.872610 
1455.557330  	90.874985 
1456.994208  	90.929594 
1458.431086  	90.939660 
1459.867964  	90.919046 
1461.304842  	90.900687 
1462.741720  	90.887599 
1464.178598  	90.868544 
1465.615476  	90.804767 
1467.052353  	90.754969 
1468.489231  	90.738277 
1469.926109  	90.718916 
1471.362987  	90.718550 
1472.799865  	90.732746 
1474.236743  	90.731505 
1475.673621  	90.723476 
1477.110499  	90.709678 
1478.547377  	90.708627 
1479.984255  	90.680728 
1481.421133  	90.611052 
1482.858011  	90.550590 
1484.294888  	90.516960 
1485.731766  	90.491349 
1487.168644  	90.476605 
1488.605522  	90.426340 
1490.042400  	90.395242 
1491.479278  	90.410881 
1492.916156  	90.374130 
1494.353034  	90.356723 
1495.789912  	90.358362 
1497.226790  	90.304371 
1498.663668  	90.247395 
1500.100546  	90.193123 
1501.537423  	90.129920 
1502.974301  	90.089610 
1504.411179  	90.048955 
1505.848057  	89.996616 
1507.284935  	89.937445 
1508.721813  	89.978460 
1510.158691  	89.997281 
1511.595569  	89.986228 
1513.032447  	89.952550 
1514.469325  	89.870658 
1515.906203  	89.747710 
1517.343081  	89.662383 
1518.779958  	89.665844 
1520.216836  	89.656212 
1521.653714  	89.702700 
1523.090592  	89.681757 
1524.527470  	89.601429 
1525.964348  	89.585093 
1527.401226  	89.536053 
1528.838104  	89.489347 
1530.274982  	89.456149 
1531.711860  	89.318193 
1533.148738  	89.163918 
1534.585616  	89.035675 
1536.022493  	88.955488 
1537.459371  	88.947696 
1538.896249  	88.883652 
1540.333127  	88.873296 
1541.770005  	89.031957 
1543.206883  	88.921568 
1544.643761  	88.845454 
1546.080639  	88.820970 
1547.517517  	88.703292 
1548.954395  	88.573927 
1550.391273  	88.373723 
1551.828151  	88.212162 
1553.265028  	88.086669 
1554.701906  	87.905476 
1556.138784  	87.859795 
1557.575662  	87.880066 
1559.012540  	87.810014 
1560.449418  	87.829572 
1561.886296  	87.596246 
1563.323174  	87.443646 
1564.760052  	87.314644 
1566.196930  	87.082495 
1567.633808  	86.899180 
1569.070686  	86.754233 
1570.507563  	86.509280 
1571.944441  	86.336377 
1573.381319  	86.175976 
1574.818197  	86.005574 
1576.255075  	85.857730 
1577.691953  	85.580408 
1579.128831  	85.347105 
1580.565709  	85.159206 
1582.002587  	84.911813 
1583.439465  	84.671517 
1584.876343  	84.368961 
1586.313221  	84.024987 
1587.750098  	83.707763 
1589.186976  	83.344757 
1590.623854  	82.995141 
1592.060732  	82.680265 
1593.497610  	82.304064 
1594.934488  	81.960834 
1596.371366  	81.597298 
1597.808244  	81.192139 
1599.245122  	80.831172 
1600.682000  	80.327683 
1602.118878  	79.844434 
1603.555756  	79.480169 
1604.992633  	78.933622 
1606.429511  	78.423242 
1607.866389  	77.909667 
1609.303267  	77.306613 
1610.740145  	76.863326 
1612.177023  	76.300725 
1613.613901  	75.735114 
1615.050779  	75.353756 
1616.487657  	74.783932 
1617.924535  	74.283074 
1619.361413  	73.835870 
1620.798291  	73.263177 
1622.235168  	72.896635 
1623.672046  	72.511430 
1625.108924  	72.054500 
1626.545802  	71.782841 
1627.982680  	71.409792 
1629.419558  	71.131301 
1630.856436  	70.968961 
1632.293314  	70.695750 
1633.730192  	70.599237 
1635.167070  	70.631964 
1636.603948  	70.708198 
1638.040826  	70.808044 
1639.477703  	70.703572 
1640.914581  	70.777233 
1642.351459  	70.999782 
1643.788337  	71.017069 
1645.225215  	71.154266 
1646.662093  	71.480592 
1648.098971  	71.839012 
1649.535849  	72.281251 
1650.972727  	72.504068 
1652.409605  	72.784975 
1653.846483  	73.998409 
1655.283361  	74.128599 
1656.720239  	74.224304 
1658.157116  	74.659678 
1659.593994  	74.973225 
1661.030872  	75.329400 
1662.467750  	75.852230 
1663.904628  	76.304534 
1665.341506  	76.721385 
1666.778384  	77.117332 
1668.215262  	77.567738 
1669.652140  	78.141585 
1671.089018  	78.629332 
1672.525896  	79.068491 
1673.962774  	79.471343 
1675.399651  	79.947665 
1676.836529  	80.574974 
1678.273407  	80.888100 
1679.710285  	81.254325 
1681.147163  	81.769973 
1682.584041  	82.164096 
1684.020919  	82.654990 
1685.457797  	83.417816 
1686.894675  	83.728654 
1688.331553  	84.151051 
1689.768431  	84.615945 
1691.205309  	84.983830 
1692.642186  	85.399747 
1694.079064  	85.677041 
1695.515942  	85.992463 
1696.952820  	86.533336 
1698.389698  	86.813237 
1699.826576  	87.163298 
1701.263454  	87.796819 
1702.700332  	87.912817 
1704.137210  	88.223475 
1705.574088  	88.680639 
1707.010966  	88.894304 
1708.447844  	89.187844 
1709.884721  	89.471176 
1711.321599  	89.747443 
1712.758477  	90.032524 
1714.195355  	90.281514 
1715.632233  	90.625958 
1717.069111  	90.942716 
1718.505989  	91.236495 
1719.942867  	91.597527 
1721.379745  	91.814530 
1722.816623  	92.047489 
1724.253501  	92.328044 
1725.690379  	92.516621 
1727.127256  	92.741661 
1728.564134  	92.866133 
1730.001012  	92.952594 
1731.437890  	93.161586 
1732.874768  	93.347290 
1734.311646  	93.486110 
1735.748524  	93.706151 
1737.185402  	93.796836 
1738.622280  	93.985751 
1740.059158  	94.201320 
1741.496036  	94.218724 
1742.932914  	94.312954 
1744.369791  	94.450194 
1745.806669  	94.524218 
1747.243547  	94.648214 
1748.680425  	94.776860 
1750.117303  	94.932862 
1751.554181  	95.077000 
1752.991059  	95.185557 
1754.427937  	95.346349 
1755.864815  	95.425161 
1757.301693  	95.441126 
1758.738571  	95.524736 
1760.175449  	95.585266 
1761.612326  	95.657562 
1763.049204  	95.731203 
1764.486082  	95.739941 
1765.922960  	95.801555 
1767.359838  	95.849346 
1768.796716  	95.851912 
1770.233594  	95.939194 
1771.670472  	96.034214 
1773.107350  	96.125830 
1774.544228  	96.203824 
1775.981106  	96.203957 
1777.417984  	96.260565 
1778.854861  	96.304836 
1780.291739  	96.293427 
1781.728617  	96.367122 
1783.165495  	96.431505 
1784.602373  	96.442053 
1786.039251  	96.482033 
1787.476129  	96.505348 
1788.913007  	96.550753 
1790.349885  	96.629673 
1791.786763  	96.639659 
1793.223641  	96.722030 
1794.660519  	96.744636 
1796.097396  	96.745436 
1797.534274  	96.839856 
1798.971152  	96.860103 
1800.408030  	96.848362 
1801.844908  	96.858877 
1803.281786  	96.867082 
1804.718664  	96.928372 
1806.155542  	96.943925 
1807.592420  	96.965971 
1809.029298  	97.003662 
1810.466176  	96.980364 
1811.903054  	97.000962 
1813.339931  	97.042906 
1814.776809  	97.042231 
1816.213687  	97.103590 
1817.650565  	97.124814 
1819.087443  	97.088503 
1820.524321  	97.110792 
1821.961199  	97.104179 
1823.398077  	97.116006 
1824.834955  	97.140507 
1826.271833  	97.154601 
1827.708711  	97.206595 
1829.145589  	97.225295 
1830.582466  	97.233138 
1832.019344  	97.309348 
1833.456222  	97.285205 
1834.893100  	97.273114 
1836.329978  	97.307251 
1837.766856  	97.234292 
1839.203734  	97.234923 
1840.640612  	97.293487 
1842.077490  	97.288963 
1843.514368  	97.331391 
1844.951246  	97.373271 
1846.388124  	97.402444 
1847.825001  	97.438261 
1849.261879  	97.414923 
1850.698757  	97.459982 
1852.135635  	97.553982 
1853.572513  	97.477955 
1855.009391  	97.443267 
1856.446269  	97.412099 
1857.883147  	97.442063 
1859.320025  	97.514598 
1860.756903  	97.370363 
1862.193781  	97.333925 
1863.630659  	97.442492 
1865.067536  	97.392231 
1866.504414  	97.378841 
1867.941292  	97.388270 
1869.378170  	97.387933 
1870.815048  	97.469980 
1872.251926  	97.460522 
1873.688804  	97.550860 
1875.125682  	97.620671 
1876.562560  	97.503816 
1877.999438  	97.513711 
1879.436316  	97.534861 
1880.873194  	97.522246 
1882.310072  	97.575323 
1883.746949  	97.567583 
1885.183827  	97.552015 
1886.620705  	97.580527 
1888.057583  	97.548601 
1889.494461  	97.576232 
1890.931339  	97.602684 
1892.368217  	97.542114 
1893.805095  	97.534118 
1895.241973  	97.509936 
1896.678851  	97.499198 
1898.115729  	97.536090 
1899.552607  	97.509056 
1900.989484  	97.484462 
1902.426362  	97.447314 
1903.863240  	97.402547 
1905.300118  	97.497588 
1906.736996  	97.546123 
1908.173874  	97.521590 
1909.610752  	97.528978 
1911.047630  	97.425895 
1912.484508  	97.337708 
1913.921386  	97.356547 
1915.358264  	97.298929 
1916.795142  	97.353042 
1918.232019  	97.367714 
1919.668897  	97.378718 
1921.105775  	97.458798 
1922.542653  	97.411831 
1923.979531  	97.386567 
1925.416409  	97.369074 
1926.853287  	97.253791 
1928.290165  	97.329906 
1929.727043  	97.363470 
1931.163921  	97.318102 
1932.600799  	97.361579 
1934.037677  	97.257404 
1935.474554  	97.236655 
1936.911432  	97.378417 
1938.348310  	97.388725 
1939.785188  	97.402714 
1941.222066  	97.395759 
1942.658944  	97.396953 
1944.095822  	97.470229 
1945.532700  	97.378996 
1946.969578  	97.281035 
1948.406456  	97.159099 
1949.843334  	96.951332 
1951.280212  	97.047032 
1952.717089  	97.069080 
1954.153967  	96.912906 
1955.590845  	97.177711 
1957.027723  	97.081264 
1958.464601  	96.781494 
1959.901479  	97.034500 
1961.338357  	97.181048 
1962.775235  	97.180789 
1964.212113  	97.152977 
1965.648991  	97.122880 
1967.085869  	97.354003 
1968.522747  	97.162256 
1969.959624  	97.055283 
1971.396502  	97.360681 
1972.833380  	97.419478 
1974.270258  	97.416931 
1975.707136  	97.431700 
1977.144014  	97.328193 
1978.580892  	97.489477 
1980.017770  	97.467310 
1981.454648  	97.335257 
1982.891526  	97.311665 
1984.328404  	97.119038 
1985.765282  	97.091382 
1987.202159  	97.067287 
1988.639037  	96.806667 
1990.075915  	96.785971 
1991.512793  	96.674706 
1992.949671  	96.457030 
1994.386549  	96.653133 
1995.823427  	96.771110 
1997.260305  	96.888629 
1998.697183  	96.959563 
2000.134061  	96.681544 
2001.570939  	96.844366 
2003.007817  	96.984985 
2004.444694  	96.749436 
2005.881572  	96.943390 
2007.318450  	96.773982 
2008.755328  	96.450688 
2010.192206  	96.923502 
2011.629084  	97.135629 
2013.065962  	96.973418 
2014.502840  	96.753298 
2015.939718  	96.538187 
2017.376596  	96.852904 
2018.813474  	97.049449 
2020.250352  	96.968189 
2021.687229  	97.082053 
2023.124107  	96.934930 
2024.560985  	96.870049 
2025.997863  	96.870241 
2027.434741  	96.462745 
2028.871619  	96.396418 
2030.308497  	96.739214 
2031.745375  	96.952796 
2033.182253  	96.999625 
2034.619131  	96.772828 
2036.056009  	96.622642 
2037.492887  	96.546715 
2038.929764  	96.475128 
2040.366642  	96.673927 
2041.803520  	96.739191 
2043.240398  	96.612927 
2044.677276  	96.575057 
2046.114154  	96.587554 
2047.551032  	96.723399 
2048.987910  	96.639401 
2050.424788  	96.477788 
2051.861666  	96.557375 
2053.298544  	96.255200 
2054.735422  	95.902270 
2056.172299  	96.165856 
2057.609177  	96.389772 
2059.046055  	96.349098 
2060.482933  	96.330038 
2061.919811  	96.328759 
2063.356689  	96.379758 
2064.793567  	96.269434 
2066.230445  	96.160439 
2067.667323  	96.246371 
2069.104201  	96.168293 
2070.541079  	96.098448 
2071.977957  	96.172253 
2073.414834  	96.221686 
2074.851712  	96.307329 
2076.288590  	96.185595 
2077.725468  	96.116305 
2079.162346  	96.325244 
2080.599224  	96.123981 
2082.036102  	95.815825 
2083.472980  	95.923678 
2084.909858  	95.937272 
2086.346736  	95.899577 
2087.783614  	95.969714 
2089.220492  	95.938729 
2090.657369  	95.932950 
2092.094247  	95.813626 
2093.531125  	95.669272 
2094.968003  	95.827644 
2096.404881  	95.897777 
2097.841759  	95.810783 
2099.278637  	95.817010 
2100.715515  	95.743886 
2102.152393  	95.667738 
2103.589271  	95.678340 
2105.026149  	95.729716 
2106.463027  	95.823201 
2107.899904  	95.749156 
2109.336782  	95.614384 
2110.773660  	95.678103 
2112.210538  	95.792554 
2113.647416  	95.811130 
2115.084294  	95.708170 
2116.521172  	95.611787 
2117.958050  	95.633182 
2119.394928  	95.641227 
2120.831806  	95.675221 
2122.268684  	95.733932 
2123.705562  	95.672173 
2125.142440  	95.648433 
2126.579317  	95.652427 
2128.016195  	95.531835 
2129.453073  	95.494683 
2130.889951  	95.625294 
2132.326829  	95.687074 
2133.763707  	95.535451 
2135.200585  	95.376477 
2136.637463  	95.394859 
2138.074341  	95.397774 
2139.511219  	95.436837 
2140.948097  	95.628425 
2142.384975  	95.746802 
2143.821852  	95.860425 
2145.258730  	95.944588 
2146.695608  	95.911940 
2148.132486  	95.878491 
2149.569364  	95.624071 
2151.006242  	95.379173 
2152.443120  	95.414645 
2153.879998  	95.584089 
2155.316876  	96.055407 
2156.753754  	96.280530 
2158.190632  	96.059549 
2159.627510  	96.369636 
2161.064387  	96.473207 
2162.501265  	96.419133 
2163.938143  	96.562187 
2165.375021  	96.013317 
2166.811899  	95.853809 
2168.248777  	96.403977 
2169.685655  	96.297419 
2171.122533  	96.103110 
2172.559411  	96.139701 
2173.996289  	95.997387 
2175.433167  	96.170221 
2176.870045  	96.370456 
2178.306922  	96.526328 
2179.743800  	96.891011 
2181.180678  	96.758295 
2182.617556  	96.401179 
2184.054434  	96.294746 
2185.491312  	96.263626 
2186.928190  	96.359097 
2188.365068  	96.330735 
2189.801946  	96.416922 
2191.238824  	96.786909 
2192.675702  	96.680670 
2194.112580  	96.447486 
2195.549457  	96.563540 
2196.986335  	96.531475 
2198.423213  	96.431438 
2199.860091  	96.480942 
2201.296969  	96.603692 
2202.733847  	96.632058 
2204.170725  	96.406035 
2205.607603  	96.418868 
2207.044481  	96.654989 
2208.481359  	96.527590 
2209.918237  	96.318858 
2211.355115  	96.240193 
2212.791992  	96.247612 
2214.228870  	96.478353 
2215.665748  	96.630904 
2217.102626  	96.632609 
2218.539504  	96.655379 
2219.976382  	96.672171 
2221.413260  	96.763027 
2222.850138  	96.788104 
2224.287016  	96.700192 
2225.723894  	96.605274 
2227.160772  	96.473821 
2228.597650  	96.634488 
2230.034527  	96.922253 
2231.471405  	96.768292 
2232.908283  	96.615717 
2234.345161  	96.796666 
2235.782039  	96.987185 
2237.218917  	97.099037 
2238.655795  	97.044279 
2240.092673  	96.890920 
2241.529551  	96.792124 
2242.966429  	96.713566 
2244.403307  	96.753803 
2245.840185  	96.848727 
2247.277062  	96.877477 
2248.713940  	96.998088 
2250.150818  	97.168101 
2251.587696  	97.203073 
2253.024574  	97.101093 
2254.461452  	97.001727 
2255.898330  	97.071506 
2257.335208  	97.143594 
2258.772086  	97.182031 
2260.208964  	97.261016 
2261.645842  	97.247477 
2263.082720  	97.218312 
2264.519597  	97.300164 
2265.956475  	97.416143 
2267.393353  	97.477665 
2268.830231  	97.363350 
2270.267109  	97.261334 
2271.703987  	97.349265 
2273.140865  	97.355985 
2274.577743  	97.357101 
2276.014621  	97.500962 
2277.451499  	97.522669 
2278.888377  	97.449875 
2280.325255  	97.397055 
2281.762132  	97.350144 
2283.199010  	97.435337 
2284.635888  	97.482086 
2286.072766  	97.426055 
2287.509644  	97.462393 
2288.946522  	97.493449 
2290.383400  	97.457251 
2291.820278  	97.455445 
2293.257156  	97.446462 
2294.694034  	97.418456 
2296.130912  	97.386410 
2297.567790  	97.355518 
2299.004667  	97.396215 
2300.441545  	97.433096 
2301.878423  	97.425604 
2303.315301  	97.424635 
2304.752179  	97.375379 
2306.189057  	97.310803 
2307.625935  	97.281474 
2309.062813  	97.300291 
2310.499691  	97.330530 
2311.936569  	97.280453 
2313.373447  	97.220226 
2314.810325  	97.213546 
2316.247202  	97.211590 
2317.684080  	97.235422 
2319.120958  	97.249297 
2320.557836  	97.214296 
2321.994714  	97.194425 
2323.431592  	97.155491 
2324.868470  	97.146593 
2326.305348  	97.204394 
2327.742226  	97.215975 
2329.179104  	97.190655 
2330.615982  	97.166657 
2332.052860  	97.167645 
2333.489737  	97.258394 
2334.926615  	97.295831 
2336.363493  	97.240056 
2337.800371  	97.257482 
2339.237249  	97.322317 
2340.674127  	97.401835 
2342.111005  	97.511892 
2343.547883  	97.547386 
2344.984761  	97.504380 
2346.421639  	97.446930 
2347.858517  	97.415018 
2349.295395  	97.392106 
2350.732273  	97.371786 
2352.169150  	97.348633 
2353.606028  	97.328820 
2355.042906  	97.333447 
2356.479784  	97.404068 
2357.916662  	97.458879 
2359.353540  	97.502773 
2360.790418  	97.607760 
2362.227296  	97.682277 
2363.664174  	97.705239 
2365.101052  	97.727622 
2366.537930  	97.762720 
2367.974808  	97.815431 
2369.411685  	97.886780 
2370.848563  	97.944765 
2372.285441  	97.953466 
2373.722319  	97.919124 
2375.159197  	97.972633 
2376.596075  	98.054166 
2378.032953  	98.086996 
2379.469831  	98.115110 
2380.906709  	98.140372 
2382.343587  	98.143558 
2383.780465  	98.166736 
2385.217343  	98.171092 
2386.654220  	98.159316 
2388.091098  	98.132948 
2389.527976  	98.113055 
2390.964854  	98.165372 
2392.401732  	98.163109 
2393.838610  	98.136978 
2395.275488  	98.200064 
2396.712366  	98.189014 
2398.149244  	98.154207 
2399.586122  	98.195195 
2401.023000  	98.186190 
2402.459878  	98.203127 
2403.896755  	98.218245 
2405.333633  	98.142452 
2406.770511  	98.159959 
2408.207389  	98.227260 
2409.644267  	98.244940 
2411.081145  	98.277905 
2412.518023  	98.259500 
2413.954901  	98.256762 
2415.391779  	98.299059 
2416.828657  	98.255900 
2418.265535  	98.244295 
2419.702413  	98.298418 
2421.139290  	98.279481 
2422.576168  	98.232507 
2424.013046  	98.264840 
2425.449924  	98.383827 
2426.886802  	98.401583 
2428.323680  	98.300371 
2429.760558  	98.362053 
2431.197436  	98.476721 
2432.634314  	98.462803 
2434.071192  	98.493990 
2435.508070  	98.522865 
2436.944948  	98.469141 
2438.381825  	98.436041 
2439.818703  	98.418546 
2441.255581  	98.446026 
2442.692459  	98.484980 
2444.129337  	98.474919 
2445.566215  	98.545091 
2447.003093  	98.643924 
2448.439971  	98.605310 
2449.876849  	98.511867 
2451.313727  	98.520628 
2452.750605  	98.610980 
2454.187483  	98.627484 
2455.624360  	98.605372 
2457.061238  	98.650145 
2458.498116  	98.652740 
2459.934994  	98.637661 
2461.371872  	98.685501 
2462.808750  	98.692420 
2464.245628  	98.670244 
2465.682506  	98.655532 
2467.119384  	98.653730 
2468.556262  	98.696068 
2469.993140  	98.674381 
2471.430018  	98.635023 
2472.866895  	98.699917 
2474.303773  	98.749315 
2475.740651  	98.766502 
2477.177529  	98.780497 
2478.614407  	98.744927 
2480.051285  	98.735007 
2481.488163  	98.742901 
2482.925041  	98.734531 
2484.361919  	98.748048 
2485.798797  	98.752731 
2487.235675  	98.763512 
2488.672553  	98.730276 
2490.109430  	98.651179 
2491.546308  	98.694971 
2492.983186  	98.746764 
2494.420064  	98.691110 
2495.856942  	98.700727 
2497.293820  	98.754368 
2498.730698  	98.780155 
2500.167576  	98.800291 
2501.604454  	98.776464 
2503.041332  	98.777175 
2504.478210  	98.813038 
2505.915088  	98.826335 
2507.351965  	98.858086 
2508.788843  	98.852430 
2510.225721  	98.802585 
2511.662599  	98.792154 
2513.099477  	98.792083 
2514.536355  	98.801597 
2515.973233  	98.822499 
2517.410111  	98.852994 
2518.846989  	98.908356 
2520.283867  	98.881116 
2521.720745  	98.800955 
2523.157623  	98.796047 
2524.594500  	98.822240 
2526.031378  	98.900034 
2527.468256  	99.015310 
2528.905134  	99.010892 
2530.342012  	98.933559 
2531.778890  	98.918666 
2533.215768  	98.944743 
2534.652646  	98.948680 
2536.089524  	98.942407 
2537.526402  	98.957211 
2538.963280  	98.969719 
2540.400158  	99.016665 
2541.837035  	99.086816 
2543.273913  	99.058772 
2544.710791  	99.011486 
2546.147669  	99.009193 
2547.584547  	98.992451 
2549.021425  	99.058064 
2550.458303  	99.114509 
2551.895181  	98.995262 
2553.332059  	98.899990 
2554.768937  	98.941589 
2556.205815  	99.025561 
2557.642693  	99.077679 
2559.079570  	99.011543 
2560.516448  	98.935842 
2561.953326  	98.956443 
2563.390204  	98.973458 
2564.827082  	98.994420 
2566.263960  	99.009788 
2567.700838  	98.967058 
2569.137716  	98.983088 
2570.574594  	99.059245 
2572.011472  	99.069979 
2573.448350  	99.034364 
2574.885228  	99.031968 
2576.322105  	99.067228 
2577.758983  	99.085523 
2579.195861  	99.092450 
2580.632739  	99.120835 
2582.069617  	99.133803 
2583.506495  	99.137686 
2584.943373  	99.145459 
2586.380251  	99.133124 
2587.817129  	99.136017 
2589.254007  	99.165363 
2590.690885  	99.176621 
2592.127763  	99.133953 
2593.564641  	99.083799 
2595.001518  	99.136716 
2596.438396  	99.209345 
2597.875274  	99.166171 
2599.312152  	99.114873 
2600.749030  	99.126949 
2602.185908  	99.141867 
2603.622786  	99.139010 
2605.059664  	99.109510 
2606.496542  	99.091757 
2607.933420  	99.128257 
2609.370298  	99.184722 
2610.807176  	99.204570 
2612.244053  	99.152324 
2613.680931  	99.090717 
2615.117809  	99.074729 
2616.554687  	99.074396 
2617.991565  	99.112544 
2619.428443  	99.179649 
2620.865321  	99.220935 
2622.302199  	99.214548 
2623.739077  	99.143986 
2625.175955  	99.136140 
2626.612833  	99.223549 
2628.049711  	99.219470 
2629.486588  	99.176915 
2630.923466  	99.188782 
2632.360344  	99.173829 
2633.797222  	99.193939 
2635.234100  	99.225294 
2636.670978  	99.170940 
2638.107856  	99.130298 
2639.544734  	99.126020 
2640.981612  	99.153421 
2642.418490  	99.218887 
2643.855368  	99.194307 
2645.292246  	99.131728 
2646.729123  	99.140602 
2648.166001  	99.131749 
2649.602879  	99.096672 
2651.039757  	99.078062 
2652.476635  	99.074349 
2653.913513  	99.096594 
2655.350391  	99.094358 
2656.787269  	99.078005 
2658.224147  	99.082482 
2659.661025  	99.057827 
2661.097903  	99.031808 
2662.534781  	99.023779 
2663.971658  	99.003430 
2665.408536  	99.003061 
2666.845414  	98.994917 
2668.282292  	98.966251 
2669.719170  	98.967512 
2671.156048  	98.953814 
2672.592926  	98.916210 
2674.029804  	98.909040 
2675.466682  	98.918990 
2676.903560  	98.929114 
2678.340438  	98.929037 
2679.777316  	98.921859 
2681.214193  	98.917444 
2682.651071  	98.901047 
2684.087949  	98.905265 
2685.524827  	98.921254 
2686.961705  	98.897816 
2688.398583  	98.874808 
2689.835461  	98.851379 
2691.272339  	98.815382 
2692.709217  	98.835464 
2694.146095  	98.875889 
2695.582973  	98.871321 
2697.019851  	98.858867 
2698.456728  	98.849585 
2699.893606  	98.826039 
2701.330484  	98.797117 
2702.767362  	98.791687 
2704.204240  	98.821666 
2705.641118  	98.833123 
2707.077996  	98.804013 
2708.514874  	98.779880 
2709.951752  	98.775974 
2711.388630  	98.775795 
2712.825508  	98.764786 
2714.262386  	98.749806 
2715.699263  	98.745785 
2717.136141  	98.753555 
2718.573019  	98.766418 
2720.009897  	98.748709 
2721.446775  	98.716868 
2722.883653  	98.725682 
2724.320531  	98.724450 
2725.757409  	98.703726 
2727.194287  	98.713101 
2728.631165  	98.698587 
2730.068043  	98.671416 
2731.504921  	98.672309 
2732.941798  	98.644260 
2734.378676  	98.631715 
2735.815554  	98.663646 
2737.252432  	98.652540 
2738.689310  	98.633936 
2740.126188  	98.650902 
2741.563066  	98.633783 
2742.999944  	98.585602 
2744.436822  	98.556704 
2745.873700  	98.533634 
2747.310578  	98.499889 
2748.747456  	98.484145 
2750.184333  	98.487158 
2751.621211  	98.478851 
2753.058089  	98.484348 
2754.494967  	98.494593 
2755.931845  	98.466692 
2757.368723  	98.448577 
2758.805601  	98.446027 
2760.242479  	98.427023 
2761.679357  	98.426964 
2763.116235  	98.412129 
2764.553113  	98.355941 
2765.989991  	98.320971 
2767.426868  	98.308207 
2768.863746  	98.299737 
2770.300624  	98.295328 
2771.737502  	98.282401 
2773.174380  	98.275968 
2774.611258  	98.270800 
2776.048136  	98.266312 
2777.485014  	98.257946 
2778.921892  	98.208927 
2780.358770  	98.171866 
2781.795648  	98.178453 
2783.232526  	98.175484 
2784.669403  	98.177514 
2786.106281  	98.168867 
2787.543159  	98.125765 
2788.980037  	98.110019 
2790.416915  	98.098195 
2791.853793  	98.042262 
2793.290671  	97.992820 
2794.727549  	97.996545 
2796.164427  	98.017067 
2797.601305  	97.965928 
2799.038183  	97.901333 
2800.475061  	97.923462 
2801.911938  	97.921427 
2803.348816  	97.871702 
2804.785694  	97.868048 
2806.222572  	97.843116 
2807.659450  	97.788782 
2809.096328  	97.760774 
2810.533206  	97.724864 
2811.970084  	97.704766 
2813.406962  	97.699567 
2814.843840  	97.668930 
2816.280718  	97.649476 
2817.717596  	97.643359 
2819.154474  	97.626032 
2820.591351  	97.582633 
2822.028229  	97.531250 
2823.465107  	97.524026 
2824.901985  	97.500564 
2826.338863  	97.450174 
2827.775741  	97.440303 
2829.212619  	97.392380 
2830.649497  	97.343057 
2832.086375  	97.370974 
2833.523253  	97.318320 
2834.960131  	97.208583 
2836.397009  	97.192629 
2837.833886  	97.177644 
2839.270764  	97.118165 
2840.707642  	97.082717 
2842.144520  	97.069778 
2843.581398  	97.052273 
2845.018276  	97.005701 
2846.455154  	96.973997 
2847.892032  	96.977255 
2849.328910  	96.943347 
2850.765788  	96.884162 
2852.202666  	96.822439 
2853.639544  	96.757500 
2855.076421  	96.738951 
2856.513299  	96.729372 
2857.950177  	96.701793 
2859.387055  	96.690771 
2860.823933  	96.650655 
2862.260811  	96.587664 
2863.697689  	96.541343 
2865.134567  	96.486608 
2866.571445  	96.444300 
2868.008323  	96.408052 
2869.445201  	96.352133 
2870.882079  	96.329839 
2872.318956  	96.329563 
2873.755834  	96.279377 
2875.192712  	96.189847 
2876.629590  	96.129120 
2878.066468  	96.100754 
2879.503346  	96.032301 
2880.940224  	95.948217 
2882.377102  	95.906676 
2883.813980  	95.846099 
2885.250858  	95.777466 
2886.687736  	95.766732 
2888.124614  	95.747085 
2889.561491  	95.665587 
2890.998369  	95.567515 
2892.435247  	95.501078 
2893.872125  	95.449210 
2895.309003  	95.369768 
2896.745881  	95.327064 
2898.182759  	95.338227 
2899.619637  	95.273175 
2901.056515  	95.138900 
2902.493393  	95.043929 
2903.930271  	94.969274 
2905.367149  	94.885434 
2906.804026  	94.831778 
2908.240904  	94.805202 
2909.677782  	94.743585 
2911.114660  	94.652811 
2912.551538  	94.590654 
2913.988416  	94.518335 
2915.425294  	94.420296 
2916.862172  	94.361161 
2918.299050  	94.315970 
2919.735928  	94.247474 
2921.172806  	94.150594 
2922.609684  	94.027821 
2924.046561  	93.967106 
2925.483439  	93.955795 
2926.920317  	93.883429 
2928.357195  	93.791461 
2929.794073  	93.727668 
2931.230951  	93.660240 
2932.667829  	93.575036 
2934.104707  	93.450307 
2935.541585  	93.325071 
2936.978463  	93.255016 
2938.415341  	93.210169 
2939.852219  	93.145873 
2941.289096  	93.030231 
2942.725974  	92.908711 
2944.162852  	92.835594 
2945.599730  	92.733210 
2947.036608  	92.593828 
2948.473486  	92.491373 
2949.910364  	92.390386 
2951.347242  	92.280121 
2952.784120  	92.184999 
2954.220998  	92.067746 
2955.657876  	91.945154 
2957.094754  	91.861957 
2958.531631  	91.782985 
2959.968509  	91.674447 
2961.405387  	91.576330 
2962.842265  	91.485445 
2964.279143  	91.347334 
2965.716021  	91.226351 
2967.152899  	91.147732 
2968.589777  	90.998752 
2970.026655  	90.811878 
2971.463533  	90.679267 
2972.900411  	90.589876 
2974.337289  	90.518350 
2975.774166  	90.371553 
2977.211044  	90.163382 
2978.647922  	90.035394 
2980.084800  	89.929376 
2981.521678  	89.791783 
2982.958556  	89.680046 
2984.395434  	89.528788 
2985.832312  	89.344245 
2987.269190  	89.200297 
2988.706068  	89.056292 
2990.142946  	88.906703 
2991.579824  	88.766164 
2993.016701  	88.613079 
2994.453579  	88.442666 
2995.890457  	88.261398 
2997.327335  	88.106484 
2998.764213  	87.962466 
3000.201091  	87.797065 
3001.637969  	87.647590 
3003.074847  	87.502854 
3004.511725  	87.348201 
3005.948603  	87.160320 
3007.385481  	86.899212 
3008.822359  	86.680339 
3010.259236  	86.555494 
3011.696114  	86.417389 
3013.132992  	86.244900 
3014.569870  	86.026502 
3016.006748  	85.787314 
3017.443626  	85.608663 
3018.880504  	85.474070 
3020.317382  	85.355710 
3021.754260  	85.177107 
3023.191138  	84.921770 
3024.628016  	84.718344 
3026.064894  	84.504948 
3027.501771  	84.256596 
3028.938649  	84.087177 
3030.375527  	83.880184 
3031.812405  	83.637046 
3033.249283  	83.462071 
3034.686161  	83.221227 
3036.123039  	82.946141 
3037.559917  	82.757180 
3038.996795  	82.586752 
3040.433673  	82.372644 
3041.870551  	82.095829 
3043.307429  	81.845917 
3044.744306  	81.647405 
3046.181184  	81.394379 
3047.618062  	81.154816 
3049.054940  	80.912434 
3050.491818  	80.606490 
3051.928696  	80.378442 
3053.365574  	80.176113 
3054.802452  	79.933561 
3056.239330  	79.714978 
3057.676208  	79.443918 
3059.113086  	79.165554 
3060.549964  	78.905188 
3061.986842  	78.600891 
3063.423719  	78.361447 
3064.860597  	78.112256 
3066.297475  	77.798576 
3067.734353  	77.553011 
3069.171231  	77.278786 
3070.608109  	76.991878 
3072.044987  	76.757743 
3073.481865  	76.448120 
3074.918743  	76.147494 
3076.355621  	75.886796 
3077.792499  	75.587685 
3079.229377  	75.295973 
3080.666254  	74.930768 
3082.103132  	74.573947 
3083.540010  	74.347444 
3084.976888  	74.074703 
3086.413766  	73.780938 
3087.850644  	73.521156 
3089.287522  	73.183651 
3090.724400  	72.830324 
3092.161278  	72.512536 
3093.598156  	72.230150 
3095.035034  	71.934876 
3096.471912  	71.574684 
3097.908789  	71.270401 
3099.345667  	70.961171 
3100.782545  	70.610619 
3102.219423  	70.350136 
3103.656301  	70.041980 
3105.093179  	69.708117 
3106.530057  	69.413460 
3107.966935  	68.998504 
3109.403813  	68.642198 
3110.840691  	68.372579 
3112.277569  	68.023346 
3113.714447  	67.743677 
3115.151324  	67.428249 
3116.588202  	67.041810 
3118.025080  	66.766523 
3119.461958  	66.424903 
3120.898836  	66.054278 
3122.335714  	65.768374 
3123.772592  	65.433050 
3125.209470  	65.116714 
3126.646348  	64.784161 
3128.083226  	64.431647 
3129.520104  	64.140348 
3130.956982  	63.753161 
3132.393859  	63.410890 
3133.830737  	63.157295 
3135.267615  	62.777386 
3136.704493  	62.462094 
3138.141371  	62.159475 
3139.578249  	61.743026 
3141.015127  	61.450719 
3142.452005  	61.192343 
3143.888883  	60.881325 
3145.325761  	60.562022 
3146.762639  	60.204272 
3148.199517  	59.919286 
3149.636394  	59.562575 
3151.073272  	59.178466 
3152.510150  	58.990994 
3153.947028  	58.678502 
3155.383906  	58.303327 
3156.820784  	58.085733 
3158.257662  	57.790202 
3159.694540  	57.525918 
3161.131418  	57.236889 
3162.568296  	56.817245 
3164.005174  	56.558447 
3165.442052  	56.268443 
3166.878929  	55.917418 
3168.315807  	55.711364 
3169.752685  	55.417263 
3171.189563  	55.155841 
3172.626441  	54.941719 
3174.063319  	54.594508 
3175.500197  	54.361587 
3176.937075  	54.103186 
3178.373953  	53.775713 
3179.810831  	53.605967 
3181.247709  	53.354336 
3182.684587  	53.106170 
3184.121464  	52.893685 
3185.558342  	52.520166 
3186.995220  	52.308992 
3188.432098  	52.178979 
3189.868976  	51.915945 
3191.305854  	51.706255 
3192.742732  	51.449884 
3194.179610  	51.239807 
3195.616488  	51.135752 
3197.053366  	50.941600 
3198.490244  	50.772228 
3199.927122  	50.543249 
3201.363999  	50.306648 
3202.800877  	50.194056 
3204.237755  	49.907830 
3205.674633  	49.674097 
3207.111511  	49.596226 
3208.548389  	49.394743 
3209.985267  	49.335744 
3211.422145  	49.252758 
3212.859023  	48.977823 
3214.295901  	48.848470 
3215.732779  	48.680899 
3217.169657  	48.535786 
3218.606534  	48.520608 
3220.043412  	48.363784 
3221.480290  	48.269662 
3222.917168  	48.155135 
3224.354046  	47.960455 
3225.790924  	47.974852 
3227.227802  	47.878132 
3228.664680  	47.732275 
3230.101558  	47.706109 
3231.538436  	47.522444 
3232.975314  	47.476420 
3234.412192  	47.470211 
3235.849069  	47.309804 
3237.285947  	47.342556 
3238.722825  	47.258664 
3240.159703  	47.110174 
3241.596581  	47.173994 
3243.033459  	47.078311 
3244.470337  	47.075560 
3245.907215  	47.156093 
3247.344093  	46.993857 
3248.780971  	46.975718 
3250.217849  	46.939162 
3251.654727  	46.822422 
3253.091604  	46.903385 
3254.528482  	46.853767 
3255.965360  	46.823774 
3257.402238  	46.872309 
3258.839116  	46.732155 
3260.275994  	46.730933 
3261.712872  	46.751479 
3263.149750  	46.707935 
3264.586628  	46.817272 
3266.023506  	46.793498 
3267.460384  	46.776913 
3268.897262  	46.810884 
3270.334139  	46.707984 
3271.771017  	46.805329 
3273.207895  	46.859711 
3274.644773  	46.744405 
3276.081651  	46.799401 
3277.518529  	46.777025 
3278.955407  	46.793276 
3280.392285  	46.909576 
3281.829163  	46.849014 
3283.266041  	46.876984 
3284.702919  	46.872082 
3286.139797  	46.803382 
3287.576674  	46.905498 
3289.013552  	46.814434 
3290.450430  	46.749229 
3291.887308  	46.876688 
3293.324186  	46.806641 
3294.761064  	46.814093 
3296.197942  	46.863836 
3297.634820  	46.836990 
3299.071698  	46.959678 
3300.508576  	46.920515 
3301.945454  	46.891621 
3303.382332  	46.995194 
3304.819210  	46.867294 
3306.256087  	46.887767 
3307.692965  	46.963540 
3309.129843  	46.850795 
3310.566721  	46.968378 
3312.003599  	47.007118 
3313.440477  	46.943917 
3314.877355  	47.066725 
3316.314233  	47.005043 
3317.751111  	46.984779 
3319.187989  	47.104775 
3320.624867  	47.063115 
3322.061745  	47.073020 
3323.498622  	47.015440 
3324.935500  	46.953072 
3326.372378  	47.079169 
3327.809256  	47.039573 
3329.246134  	47.039727 
3330.683012  	47.138564 
3332.119890  	47.075943 
3333.556768  	47.149006 
3334.993646  	47.223416 
3336.430524  	47.207045 
3337.867402  	47.306761 
3339.304280  	47.316033 
3340.741157  	47.360356 
3342.178035  	47.423445 
3343.614913  	47.400581 
3345.051791  	47.553239 
3346.488669  	47.562760 
3347.925547  	47.495837 
3349.362425  	47.649786 
3350.799303  	47.618963 
3352.236181  	47.658412 
3353.673059  	47.815569 
3355.109937  	47.723709 
3356.546815  	47.856230 
3357.983692  	48.028843 
3359.420570  	47.982038 
3360.857448  	48.147957 
3362.294326  	48.215987 
3363.731204  	48.177694 
3365.168082  	48.286341 
3366.604960  	48.282204 
3368.041838  	48.369793 
3369.478716  	48.485062 
3370.915594  	48.507690 
3372.352472  	48.703376 
3373.789350  	48.777731 
3375.226227  	48.823130 
3376.663105  	49.013187 
3378.099983  	49.032133 
3379.536861  	49.177465 
3380.973739  	49.399067 
3382.410617  	49.420332 
3383.847495  	49.542713 
3385.284373  	49.647343 
3386.721251  	49.777082 
3388.158129  	50.005970 
3389.595007  	50.020695 
3391.031885  	50.130101 
3392.468762  	50.360025 
3393.905640  	50.490443 
3395.342518  	50.748296 
3396.779396  	50.927435 
3398.216274  	51.035327 
3399.653152  	51.171476 
3401.090030  	51.189383 
3402.526908  	51.471384 
3403.963786  	51.803440 
3405.400664  	51.898539 
3406.837542  	52.176084 
3408.274420  	52.352074 
3409.711297  	52.420820 
3411.148175  	52.666054 
3412.585053  	52.763457 
3414.021931  	52.999601 
3415.458809  	53.340734 
3416.895687  	53.400532 
3418.332565  	53.577404 
3419.769443  	53.773762 
3421.206321  	53.955671 
3422.643199  	54.345844 
3424.080077  	54.529346 
3425.516955  	54.739715 
3426.953832  	55.050663 
3428.390710  	55.107748 
3429.827588  	55.341572 
3431.264466  	55.624912 
3432.701344  	55.723215 
3434.138222  	55.962854 
3435.575100  	56.157664 
3437.011978  	56.453094 
3438.448856  	56.821404 
3439.885734  	56.865976 
3441.322612  	57.087045 
3442.759490  	57.445477 
3444.196367  	57.561431 
3445.633245  	57.790093 
3447.070123  	58.036554 
3448.507001  	58.273173 
3449.943879  	58.569725 
3451.380757  	58.698057 
3452.817635  	58.926556 
3454.254513  	59.200659 
3455.691391  	59.391815 
3457.128269  	59.748485 
3458.565147  	59.955753 
3460.002025  	60.084953 
3461.438902  	60.407235 
3462.875780  	60.653697 
3464.312658  	60.956259 
3465.749536  	61.219951 
3467.186414  	61.298238 
3468.623292  	61.506918 
3470.060170  	61.673963 
3471.497048  	61.877685 
3472.933926  	62.256570 
3474.370804  	62.463105 
3475.807682  	62.726968 
3477.244560  	62.992443 
3478.681437  	63.041175 
3480.118315  	63.326819 
3481.555193  	63.704427 
3482.992071  	63.949573 
3484.428949  	64.197696 
3485.865827  	64.320322 
3487.302705  	64.571861 
3488.739583  	64.917636 
3490.176461  	65.051220 
3491.613339  	65.254213 
3493.050217  	65.479036 
3494.487095  	65.715203 
3495.923972  	66.094558 
3497.360850  	66.309912 
3498.797728  	66.519607 
3500.234606  	66.788801 
3501.671484  	66.876920 
3503.108362  	67.077904 
3504.545240  	67.414826 
3505.982118  	67.741991 
3507.418996  	68.077703 
3508.855874  	68.239605 
3510.292752  	68.414264 
3511.729630  	68.655582 
3513.166507  	68.796394 
3514.603385  	69.062467 
3516.040263  	69.362467 
3517.477141  	69.648802 
3518.914019  	69.972101 
3520.350897  	70.061312 
3521.787775  	70.168048 
3523.224653  	70.450995 
3524.661531  	70.690803 
3526.098409  	71.012752 
3527.535287  	71.299499 
3528.972165  	71.542651 
3530.409043  	71.851444 
3531.845920  	72.005969 
3533.282798  	72.254508 
3534.719676  	72.594478 
3536.156554  	72.772439 
3537.593432  	73.095154 
3539.030310  	73.400536 
3540.467188  	73.562749 
3541.904066  	73.823070 
3543.340944  	73.990705 
3544.777822  	74.146974 
3546.214700  	74.446299 
3547.651578  	74.716472 
3549.088455  	75.019952 
3550.525333  	75.261523 
3551.962211  	75.409018 
3553.399089  	75.695968 
3554.835967  	75.926964 
3556.272845  	76.090357 
3557.709723  	76.318481 
3559.146601  	76.498630 
3560.583479  	76.733201 
3562.020357  	76.997340 
3563.457235  	77.176725 
3564.894113  	77.434031 
3566.330990  	77.692575 
3567.767868  	77.979453 
3569.204746  	78.337458 
3570.641624  	78.565328 
3572.078502  	78.817085 
3573.515380  	79.026678 
3574.952258  	79.127359 
3576.389136  	79.426908 
3577.826014  	79.652445 
3579.262892  	79.785791 
3580.699770  	80.045455 
3582.136648  	80.209251 
3583.573525  	80.411237 
3585.010403  	80.604046 
3586.447281  	80.639107 
3587.884159  	81.006693 
3589.321037  	81.457694 
3590.757915  	81.582696 
3592.194793  	81.795200 
3593.631671  	82.036706 
3595.068549  	82.243828 
3596.505427  	82.461356 
3597.942305  	82.613768 
3599.379183  	82.830374 
3600.816060  	83.055007 
3602.252938  	83.285606 
3603.689816  	83.515951 
3605.126694  	83.495645 
3606.563572  	83.497546 
3608.000450  	83.824862 
3609.437328  	84.210870 
3610.874206  	84.484613 
3612.311084  	84.633114 
3613.747962  	84.747043 
3615.184840  	84.981947 
3616.621718  	85.192017 
3618.058595  	85.419353 
3619.495473  	85.625712 
3620.932351  	85.743825 
3622.369229  	86.013443 
3623.806107  	86.253654 
3625.242985  	86.423871 
3626.679863  	86.633085 
3628.116741  	86.772870 
3629.553619  	87.154270 
3630.990497  	87.610456 
3632.427375  	87.744032 
3633.864253  	88.027100 
3635.301130  	88.301513 
3636.738008  	88.404629 
3638.174886  	88.674798 
3639.611764  	88.891120 
3641.048642  	88.927697 
3642.485520  	89.097047 
3643.922398  	89.308348 
3645.359276  	89.448617 
3646.796154  	89.484499 
3648.233032  	89.592698 
3649.669910  	90.021996 
3651.106788  	90.533800 
3652.543665  	91.074720 
3653.980543  	91.443863 
3655.417421  	91.653268 
3656.854299  	91.955767 
3658.291177  	92.232011 
3659.728055  	92.352483 
3661.164933  	92.535449 
3662.601811  	92.752187 
3664.038689  	92.916309 
3665.475567  	93.057971 
3666.912445  	93.251602 
3668.349323  	93.442693 
3669.786200  	93.560739 
3671.223078  	93.800108 
3672.659956  	94.223444 
3674.096834  	94.474277 
3675.533712  	94.709443 
3676.970590  	95.027438 
3678.407468  	95.206197 
3679.844346  	95.484873 
3681.281224  	95.753805 
3682.718102  	95.863262 
3684.154980  	95.941569 
3685.591858  	96.028470 
3687.028735  	96.042336 
3688.465613  	96.100232 
3689.902491  	96.311342 
3691.339369  	96.525486 
3692.776247  	96.663381 
3694.213125  	96.762311 
3695.650003  	96.857209 
3697.086881  	96.851878 
3698.523759  	96.873439 
3699.960637  	96.932676 
3701.397515  	96.934920 
3702.834393  	96.991987 
3704.271270  	97.081598 
3705.708148  	97.120039 
3707.145026  	97.171215 
3708.581904  	97.198259 
3710.018782  	97.203561 
3711.455660  	97.340523 
3712.892538  	97.503729 
3714.329416  	97.640285 
3715.766294  	97.822711 
3717.203172  	97.866516 
3718.640050  	97.788108 
3720.076928  	97.688308 
3721.513805  	97.637481 
3722.950683  	97.656050 
3724.387561  	97.768438 
3725.824439  	97.816993 
3727.261317  	97.787856 
3728.698195  	97.788916 
3730.135073  	97.835595 
3731.571951  	97.910042 
3733.008829  	97.967661 
3734.445707  	97.937067 
3735.882585  	97.870512 
3737.319463  	98.002293 
3738.756340  	98.177863 
3740.193218  	98.255653 
3741.630096  	98.305004 
3743.066974  	98.298546 
3744.503852  	98.172085 
3745.940730  	98.106009 
3747.377608  	98.268699 
3748.814486  	98.444732 
3750.251364  	98.600924 
3751.688242  	98.634600 
3753.125120  	98.709995 
3754.561998  	98.755428 
3755.998875  	98.750162 
3757.435753  	98.792298 
3758.872631  	98.830878 
3760.309509  	98.794199 
3761.746387  	98.769567 
3763.183265  	98.817292 
3764.620143  	98.831167 
3766.057021  	98.817813 
3767.493899  	98.903528 
3768.930777  	98.994963 
3770.367655  	98.973641 
3771.804533  	98.974842 
3773.241411  	99.012325 
3774.678288  	99.019065 
3776.115166  	99.028504 
3777.552044  	98.987053 
3778.988922  	98.907511 
3780.425800  	98.906781 
3781.862678  	98.925517 
3783.299556  	99.005481 
3784.736434  	99.153081 
3786.173312  	99.130143 
3787.610190  	99.040674 
3789.047068  	99.097947 
3790.483946  	99.157779 
3791.920823  	98.990865 
3793.357701  	98.785617 
3794.794579  	98.773206 
3796.231457  	98.642719 
3797.668335  	98.387578 
3799.105213  	98.569348 
3800.542091  	98.792878 
3801.978969  	98.678532 
3803.415847  	98.832751 
3804.852725  	99.162050 
3806.289603  	99.321800 
3807.726481  	99.304753 
3809.163358  	99.155395 
3810.600236  	99.050410 
3812.037114  	98.950069 
3813.473992  	98.877329 
3814.910870  	98.826234 
3816.347748  	98.633242 
3817.784626  	98.610514 
3819.221504  	98.859992 
3820.658382  	99.092844 
3822.095260  	99.234192 
3823.532138  	99.238351 
3824.969016  	99.256951 
3826.405893  	99.241327 
3827.842771  	98.980754 
3829.279649  	98.795834 
3830.716527  	98.856225 
3832.153405  	98.825360 
3833.590283  	98.735848 
3835.027161  	98.903236 
3836.464039  	99.102974 
3837.900917  	99.054166 
3839.337795  	98.930948 
3840.774673  	99.067093 
3842.211551  	99.268801 
3843.648428  	99.272397 
3845.085306  	99.211391 
3846.522184  	99.124339 
3847.959062  	98.891672 
3849.395940  	98.772652 
3850.832818  	98.774121 
3852.269696  	98.792816 
3853.706574  	98.841911 
3855.143452  	98.984757 
3856.580330  	99.095946 
3858.017208  	99.217472 
3859.454086  	99.245660 
3860.890963  	99.151439 
3862.327841  	99.048558 
3863.764719  	98.978275 
3865.201597  	98.852887 
3866.638475  	98.847005 
3868.075353  	99.027346 
3869.512231  	99.143644 
3870.949109  	99.050640 
3872.385987  	99.090848 
3873.822865  	99.186645 
3875.259743  	99.130742 
3876.696621  	99.088637 
3878.133498  	99.126236 
3879.570376  	99.124217 
3881.007254  	99.032640 
3882.444132  	98.953549 
3883.881010  	99.024559 
3885.317888  	99.101357 
3886.754766  	99.060261 
3888.191644  	99.122997 
3889.628522  	99.227268 
3891.065400  	99.222143 
3892.502278  	99.117949 
3893.939156  	99.051077 
3895.376033  	99.105011 
3896.812911  	99.149414 
3898.249789  	99.058132 
3899.686667  	98.956023 
3901.123545  	98.991305 
3902.560423  	99.016321 
3903.997301  	99.060960 
3905.434179  	99.187853 
3906.871057  	99.297074 
3908.307935  	99.346392 
3909.744813  	99.341623 
3911.181691  	99.305050 
3912.618568  	99.219575 
3914.055446  	99.152227 
3915.492324  	99.130461 
3916.929202  	99.064064 
3918.366080  	99.044870 
3919.802958  	99.124322 
3921.239836  	99.153092 
3922.676714  	99.179184 
3924.113592  	99.189780 
3925.550470  	99.136294 
3926.987348  	99.160034 
3928.424226  	99.195762 
3929.861103  	99.201287 
3931.297981  	99.225354 
3932.734859  	99.138223 
3934.171737  	99.073731 
3935.608615  	99.164769 
3937.045493  	99.163257 
3938.482371  	99.106673 
3939.919249  	99.119827 
3941.356127  	99.150714 
3942.793005  	99.141108 
3944.229883  	99.123813 
3945.666761  	99.145683 
3947.103638  	99.177953 
3948.540516  	99.184376 
3949.977394  	99.191358 
3951.414272  	99.199606 
3952.851150  	99.196050 
3954.288028  	99.188524 
3955.724906  	99.186238 
3957.161784  	99.192878 
3958.598662  	99.184410 
3960.035540  	99.131731 
3961.472418  	99.152831 
3962.909296  	99.184873 
3964.346173  	99.175987 
3965.783051  	99.189292 
3967.219929  	99.178890 
3968.656807  	99.139273 
3970.093685  	99.107555 
3971.530563  	99.096132 
3972.967441  	99.181615 
3974.404319  	99.259747 
3975.841197  	99.192732 
3977.278075  	99.119315 
3978.714953  	99.120439 
3980.151831  	99.139997 
3981.588708  	99.157953 
3983.025586  	99.159423 
3984.462464  	99.166972 
3985.899342  	99.180978 
3987.336220  	99.165897 
3988.773098  	99.118161 
3990.209976  	99.072783 
3991.646854  	99.127430 
3993.083732  	99.238885 
3994.520610  	99.254358 
3995.957488  	99.206824 
3997.394366  	99.184424 
3998.831244  	99.216061 
4000.268121  	99.247978 